subject,condition,window,start_seconds,fold,probability_high,attention_af3,attention_f7,attention_f3,attention_fc5,attention_t7,attention_p7,attention_o1,attention_o2,attention_p8,attention_t8,attention_fc6,attention_f4,attention_f8,attention_af4,relay_effective_span,relay_penalty,asi_eeg,asi_projected
1,rest,0,0,3,0.3138800821692453,0.08231874940241615,0.012122810380363766,0.07394438343045541,0.059488382099323125,0.10713455738846199,0.04841764223992783,0.041889765594827044,0.06006447868288919,0.05634871490040436,0.07457178050507887,0.04996675880570773,0.0491483938451836,0.0937344645150766,0.19084911820988426,12.166667305800715,0.8589744081385166,0.3369767527970803,0.20813059157630281
1,rest,2,4,3,0.4636863458874439,0.051174636932556604,0.08649053613132954,0.10245929206968636,0.08400423786806457,0.08930255971094464,0.03969193314975925,0.04889452907320735,0.08260295970333174,0.0904378402725101,0.11970565584781173,0.041063018590646545,0.05128864216655625,0.05153152912443619,0.061352629359159055,13.218474772952629,0.9398826748425099,0.5647648625526042,0.42378246132622766
1,rest,4,8,3,0.3978639057476559,0.031347719642438154,0.2544065080141829,0.05065227692086974,0.04329830934674987,0.17269929374842397,0.023756873790837383,0.07428862167451443,0.0593090320257068,0.07193581149723578,0.08646191156819165,0.042409335776405224,0.035092611379471284,0.017190081192823774,0.037151613422148996,10.395716487294598,0.7227474220995844,0.5066511007675348,0.39823898745259717
1,rest,6,12,3,0.11831417958187535,0.059633077561950625,0.027057952979040102,0.0746391101580551,0.08591340015054329,0.04219575910184652,0.08410227532726187,0.038878699734788566,0.04842062842638108,0.06986025245137167,0.08711568814080305,0.08449046876273243,0.12215616397585201,0.07337158075504506,0.10216494247432852,13.116501855332082,0.932038604256314,0.37660398840142595,0.23679819776297886
1,rest,8,16,3,0.3558037307018593,0.09571296312966077,0.0338422544514076,0.10755055497907397,0.06754628824610312,0.02055311753202714,0.0922598552522638,0.08266888310112948,0.1184589612229093,0.0863329182228058,0.0846333619727425,0.057659953474024424,0.03882578044755473,0.04182713832173679,0.07212796964656044,12.846221552649782,0.9112478117422909,0.44074312981722397,0.30405595805588037
1,rest,10,20,3,0.18528347631039083,0.07523491543537955,0.170936812319801,0.08583653319892275,0.0880942846053166,0.07850523940315,0.06894915748525855,0.04813891011235193,0.039631633270402464,0.07208949608962616,0.07223159532351797,0.057439053819669,0.05321262903813672,0.05854380466189636,0.03115593523657092,12.8496652953334,0.9115127150256461,0.4047348593505528,0.2680079520967059
1,rest,12,24,3,0.4617923051332133,0.08008698233320535,0.13774883086758358,0.07774889894848097,0.05486135448033093,0.028699501667897802,0.02744497492041708,0.061141739052578435,0.04068047533832185,0.06090000450557381,0.06552809520388259,0.03797994423364416,0.10770416443672394,0.18089551900010006,0.03857951501125952,11.976350199708667,0.8443346307468206,0.5805360476873289,0.4538858530753058
1,rest,14,28,3,0.3884666469093327,0.15377536718608967,0.07720900078289171,0.07620432162846409,0.08402185840153527,0.014716493323657393,0.04480927418985079,0.06378842116899129,0.0631929881245994,0.06178410475050274,0.06250570557222594,0.05831343073475386,0.06617798263195411,0.07132538870566515,0.10217566279881868,12.850321313913328,0.911563177993333,0.5391601159793808,0.4024256392803809
1,rest,16,32,3,0.18371536028120056,0.03997405517157855,0.06076057827037655,0.04919557576576793,0.051993546177741795,0.1301394993656122,0.05384075488336751,0.0759890577215548,0.06725865818063832,0.036983821010847254,0.08469420070322256,0.126926245838057,0.07531399196609716,0.10116704405531446,0.04576297088982398,12.95591749213215,0.9196859609332423,0.49202417448849173,0.3540712803485054
1,rest,18,36,3,0.21986594196792278,0.047602242551996174,0.13332225055700628,0.03912747278966413,0.05050633099408547,0.1643763364998948,0.04802767528385979,0.0828611363416391,0.08277013213106163,0.08049766187346145,0.07747537530535065,0.03628052876520567,0.046726648067751474,0.050258585999886606,0.06016762283913655,12.556876089604733,0.8889904684311334,0.48861506648081954,0.35526649621614953
1,rest,20,40,3,0.5584306704329581,0.08608891025290356,0.00587527161513417,0.08154454911574105,0.04273976186028771,0.02298081076731224,0.0596489496719886,0.01675107297558307,0.04963848344074029,0.05950965420241664,0.11465373950292854,0.09744821198607191,0.04614145739024937,0.15540457415275719,0.16157455306588572,11.266031457598245,0.7896947275075573,0.5767325983115398,0.4582783891854062
1,rest,22,44,3,0.3707311489779554,0.020029505014686585,0.47314351594910975,0.02320985265422112,0.03381263610829619,0.056912644287297094,0.07481764000657036,0.08104459652539019,0.026098486074893068,0.014266582945091564,0.014397529468033894,0.07724094492747867,0.04473648917532849,0.038706589933255105,0.021582986930347832,7.080232130834026,0.4677101639103097,0.5252512319988143,0.4550947074122679
1,rest,24,48,3,0.6197068277783653,0.05698176878347133,0.07517493492330332,0.08999474725758191,0.05108866391775861,0.020142853698918425,0.042928221230145565,0.031475157421543665,0.07018027231682283,0.0745783166915904,0.11383243334470722,0.038056144475669844,0.0567391551396616,0.1472678643869881,0.13155946641183716,12.337637473182232,0.8721259594755563,0.6063317347722217,0.47551284085088824
1,rest,26,52,3,0.3798944728506562,0.07174252991327608,0.05626537578213842,0.04614497642475026,0.1019936511674657,0.024241010569043098,0.07066123757496313,0.061540310875945275,0.09076584819884921,0.06372603089905046,0.10308043020926054,0.07585792730482628,0.04185585427791251,0.11131648965301212,0.08080832714950686,13.174580159599882,0.9365061661230679,0.522994762459252,0.38251883754079186
1,rest,28,56,3,0.21849813669411922,0.06303543065345116,0.06573039836337788,0.054037602884740486,0.054958220958270264,0.053017233447773086,0.05970575746596919,0.019385353871924624,0.05228720680735946,0.03619962176294446,0.04049116984861991,0.18972382776472074,0.16340087104495662,0.10438172301385384,0.043645582112038374,11.69219025285479,0.8224761732965222,0.4026407180642461,0.2792692920697678
1,rest,30,60,3,0.38656827464512894,0.07140338589447094,0.03615398227713053,0.07880634572124476,0.06158971868989345,0.0316721306016098,0.1012557954931528,0.08572282742968552,0.05742516905162044,0.06195521100346797,0.04212627786609687,0.07626049344370037,0.05498485684783342,0.13686855619030014,0.10377524948979293,13.001711465453392,0.9232085742656455,0.40563738662270094,0.2671561004828541
1,rest,32,64,3,0.2906537746185989,0.09208079883902885,0.2133941142179549,0.05729295686372072,0.057510599885790145,0.09607886708893587,0.05625876861533269,0.02792063366866209,0.03382917807858976,0.034885148592215656,0.06660634285266817,0.048455570344690384,0.060720792282002396,0.0723180397955787,0.08264818887482943,12.049779389861122,0.8499830299893171,0.4083244668702286,0.28082701237183105
1,rest,34,68,3,0.18797454263623248,0.04263443323448172,0.14702999195864042,0.030226705879322264,0.06356326498480185,0.10179866640116507,0.13482352816518497,0.0733808872444841,0.07397712466292286,0.07064036062553376,0.05042617786685587,0.10778081834590789,0.04539467609105407,0.04822189762917729,0.010101466910467781,12.12554983988457,0.8558115261449669,0.4745211497225917,0.34614942080084665
1,rest,36,72,3,0.4294353943947848,0.11691064364876375,0.07736953650338196,0.07332068601537842,0.05173931583885078,0.023893757231296595,0.05754136663308796,0.10403959184560574,0.09160767805542529,0.07492331680842858,0.07730874565098424,0.03148731585939112,0.04832172293554673,0.08214163252262839,0.08939469045123036,13.068073131403091,0.9283133178002377,0.4209087009010354,0.2816617032309997
1,rest,38,76,3,0.24574633393347686,0.04841014237595972,0.06293209198810229,0.04729130845912747,0.025409242645640557,0.24254491906597953,0.03448317426640224,0.015255087930691085,0.04425273975093813,0.041728455523090444,0.10449803467494997,0.12526717897991996,0.07957062607620448,0.08304391340428806,0.0453130848587061,10.98780425650344,0.7682926351156492,0.5221861535099757,0.4069422582426283
1,rest,40,80,3,0.239080175546676,0.12941277117125916,0.0901559117179856,0.0311788321420116,0.04101044672498138,0.18901384892942627,0.04502175312010849,0.06090514366484591,0.03572164005992955,0.05177023697401679,0.03198379573156815,0.05739710664911283,0.07194943310424237,0.097458158575874,0.06702092143463792,12.054524243757664,0.8503480187505895,0.5446607746074086,0.4171085717948202
1,rest,42,84,3,0.3110058626642486,0.03546715682724856,0.03258297637291195,0.03081132930461167,0.023393847559002867,0.1578954224991627,0.015754919483484918,0.05797159075197428,0.045221337966569096,0.1465252562385912,0.27313493583371595,0.06007580380853426,0.06990287619192043,0.033968389580363925,0.017294157581908127,9.610725666275698,0.6623635127904384,0.6274614882540738,0.528106961335508
1,rest,44,88,3,0.3742320020952098,0.09400856865104915,0.03465879092289098,0.08414994564365467,0.07911184677493548,0.1329875253470753,0.1740440947393621,0.07234059547887592,0.08503377970791788,0.059996708018933885,0.031905085384781845,0.03925408012298462,0.035991705215376944,0.04246528263499219,0.03405199135716909,12.117714481247576,0.8552088062498135,0.5532987017968659,0.4250173808593939
1,rest,46,92,3,0.3030069482650621,0.08819530405415661,0.052060457258281234,0.050532458791282396,0.04063826506934078,0.06321445867957894,0.11406857944690756,0.14911387527020295,0.08046764597484646,0.07638643871151614,0.03570175355292593,0.04200731363687941,0.09532726442302338,0.03352244050587898,0.07876374462517931,12.735624918126032,0.9027403783173871,0.4428003197012799,0.30738926295367186
1,rest,48,96,3,0.23539919489081573,0.0832869233427899,0.04482594651023769,0.06553876741101798,0.049428718794976644,0.0471326135029864,0.038964017096535915,0.04427003288660809,0.11752705862687121,0.17834203784814784,0.028909310208108278,0.044464611236087616,0.11838478339849506,0.042227390971571084,0.09669778816556623,12.109450066285563,0.8545730820219664,0.818153003929326,0.6899670416260311
1,rest,50,100,3,0.09635736952525852,0.06803506313232832,0.031081952010452284,0.06446837759724217,0.16030079636396696,0.04143548565625217,0.07573682480438851,0.09462955679776597,0.0908847754494744,0.06284333406914648,0.04980815182966507,0.0855938306644233,0.06113202454412148,0.0485420093782275,0.06550781770254538,12.92718565482269,0.9174758196017454,0.4093156100263667,0.27169423708610485
1,rest,52,104,3,0.3663795564561823,0.1013650063275765,0.019730421983767586,0.058732810602238526,0.07233505588775946,0.012770317961176158,0.12291688119420406,0.09038470774912254,0.05904718027382188,0.05379907116953541,0.07018174021523806,0.06607940304804664,0.08075886005035311,0.12693218387385538,0.06496635966330468,12.54932113314142,0.8884093179339554,0.5157447948671241,0.38248339717703084
1,rest,54,108,3,0.25006366398238833,0.10766195030292292,0.0031232973529787093,0.09160974009610101,0.09555580060357324,0.010267425062993392,0.053259626610476424,0.06173754699189839,0.058754395723379836,0.07011052730048126,0.15978334840834377,0.06335777834929557,0.053128616738227774,0.11045578714244395,0.06119415931688388,11.791495393755783,0.8301150302889064,0.41709126845208205,0.2925740139087461
1,rest,56,112,3,0.16942809454707577,0.1409888902422067,0.006454620590505168,0.05934803093628203,0.09554718331764878,0.012067191382475403,0.11528723052414769,0.06690797842976451,0.09028553117442116,0.0693116322988812,0.04756219228448905,0.06825806401248151,0.13739680829097153,0.0413233582451965,0.04926128827052889,11.786498096940683,0.829730622841591,0.6399400181268476,0.515480424700609
1,rest,58,116,3,0.1908985199719266,0.12316910337929125,0.007214241159612851,0.051416922166078724,0.06202906435293254,0.012734209110831809,0.093946516726613,0.06006267359912051,0.11634969194872517,0.13647400254689726,0.0666690890543423,0.07527141673072192,0.051771339086176926,0.08266077443757118,0.0602309557010847,12.07520303860996,0.8519386952776892,0.6602345594325124,0.5324437551408591
1,rest,60,120,3,0.22929685150711607,0.12290181921248941,0.007527101062278497,0.07063853479696645,0.07134036580330942,0.0160314711489883,0.16433498461215718,0.031390455823250944,0.05525375819532672,0.06715268564163163,0.03826322214366135,0.08346949891940182,0.08379868989493185,0.0654855640368561,0.12241184870875026,11.688243260711408,0.8221725585162621,0.5595885985260575,0.43626271474861816
1,rest,62,124,3,0.34041166282398455,0.0541113629215312,0.13958579582484262,0.04128080358505089,0.03886134675214169,0.24547518838934368,0.12798693883931114,0.0833713335886651,0.03245089743536301,0.014726347659967852,0.010714413870919301,0.055347695725885306,0.04570948123226844,0.052259791311779186,0.05811860286293086,10.467711297461202,0.7282854844200924,0.6217262526570065,0.5124834299939927
1,rest,64,128,3,0.5246250283135099,0.16927291302375239,0.034734624490956816,0.05585640174075504,0.08946528762425023,0.023251664703865634,0.03915952895750824,0.047350131791763395,0.03224535600756129,0.06675709397147087,0.04984660164993698,0.04653186202199344,0.062491520576173264,0.08730026134699989,0.19573675209301256,11.499395460445836,0.8076458046496797,0.5390591826006563,0.4179123119032044
1,rest,66,132,3,0.2678038648091934,0.0710871769381913,0.11699357461363906,0.08607410348884356,0.05891390486653262,0.06576845506332887,0.03135390622397937,0.012946132329717662,0.07236440241430575,0.08581349604100488,0.12999978926985065,0.07594917386765919,0.11702284397600814,0.04660623137308284,0.029106809533856106,12.420934896896846,0.8785334536074496,0.6449677811995533,0.5131877631584358
1,rest,68,136,3,0.21506529293353127,0.032594361575242245,0.17613641957809295,0.03687509645041157,0.0550789460209589,0.11268550027792616,0.05708658633063687,0.07801231426621649,0.05905393627546279,0.06413641971498624,0.08153818334497268,0.08540389266106758,0.03362136916521488,0.055225599248377444,0.07255137509043322,12.545897032540687,0.8881459255800528,0.41012697604880255,0.27690508721179463
1,rest,70,140,3,0.17250221702908763,0.06517805115363094,0.10524905411788828,0.028542813158089143,0.044936626408071056,0.39507392881786474,0.031292502744903396,0.03983700530485793,0.016778275569050705,0.025703764762139786,0.026497674907477033,0.08024875565997792,0.07382759909087862,0.021180026008141728,0.04565392229702861,8.46424349512618,0.5741725765481677,0.48311294376928593,0.3969870572870608
1,rest,72,144,3,0.3262014941859041,0.02349998435091613,0.07370475088126797,0.018546022701699416,0.054052127820042206,0.2608706369284454,0.032435403800802676,0.03279873747185091,0.025830365542662194,0.044275228294770166,0.050778258690566104,0.22010446336541561,0.13127343257214205,0.022335393167244946,0.0094951944121742,9.011221616699617,0.6162478166692013,0.6492431930496388,0.5568060205492587
1,high,0,0,3,0.8335654001587192,0.047352243394621234,0.005598458071222276,0.08231455639326389,0.02235803795826919,0.0009673960051580901,0.0023161697336909963,0.015388024508613441,0.025682153311242985,0.0701332050561345,0.20175202978436724,0.05700317494835925,0.10520244093659235,0.17442598006326268,0.18950612983520196,8.778936734251449,0.598379748788573,0.2947081876362647,0.20495122531797877
1,high,2,4,3,0.9675260410887031,0.0889243890930563,0.011494334693976435,0.03626779957860166,0.014674014928716336,0.005213699493347409,0.02046917109114513,0.02433118616324913,0.07202499037319168,0.05096521485980059,0.2577809963322651,0.024693735826173728,0.020723758443253498,0.15236165767118692,0.22007505145203599,8.401246580018881,0.5693266600014524,0.26385069962279545,0.1784517006225776
1,high,4,8,3,0.4520088671510814,0.03950862009505484,0.02807242025496189,0.06821725070210034,0.04146623587494327,0.05087368928144138,0.00853784154595283,0.017839878608796204,0.015502508832281381,0.05321778086693973,0.0769446766052139,0.08043155966483637,0.1970186297977693,0.141795788060093,0.18057311980961566,10.319007931978401,0.7168467639983386,0.40368747250453624,0.29616045790478546
1,high,6,12,3,0.740026346264351,0.12168276762640329,0.08727859189067186,0.11861802386683339,0.10471353600052985,0.002699857963022069,0.0017714327295411689,0.002028700491470154,0.007924995755650983,0.007204965143114916,0.01858001590600682,0.027726821714997296,0.08292142005273856,0.09323373710048995,0.3236151337585297,7.676806951134823,0.5136005347026787,0.5015850619814222,0.42454498177602035
1,high,8,16,3,0.47520643932178697,0.042215833521046485,0.01308581829490773,0.02628934433005457,0.08622946909593937,0.0016827189176127136,0.018516640544761695,0.06757455808919319,0.04802616089963183,0.13243795145528947,0.279336897135675,0.06639795209133514,0.06912179446791601,0.10657017831307825,0.04251468284355854,9.693492141958389,0.66873016476603,0.3344648724771006,0.2341553477621961
1,high,10,20,3,0.7520492147959167,0.4681861675325648,0.007137184437199157,0.11878149273137265,0.05272016467396526,0.0017219864870230317,0.0100566198872845,0.019472962007395702,0.01998837520937661,0.029087793897858216,0.03922085750947212,0.046187051125388456,0.07813523281572642,0.04624991195518608,0.06305419973018715,6.675595571700785,0.4365842747462142,0.41300356735480864,0.3475159261428765
1,high,12,24,3,0.3290608550325497,0.12500089316357466,0.0026720289843245038,0.13271320137261938,0.06597881269055864,0.007301789113196304,0.013919625363517953,0.01859734462509847,0.07520215988349299,0.10925718252215079,0.06163588410994175,0.07029350767055029,0.09589000269572817,0.12820999343469605,0.09332757437055014,10.990806445313964,0.7685235727164588,0.35513995855774627,0.23986142265027746
1,high,14,28,3,0.8072001372500373,0.135215069468781,0.0165553024678781,0.03975468823647913,0.018182798159389682,0.003034095350791426,0.0045737772045476134,0.00692272126468127,0.02932356723164702,0.06341808043380237,0.16166674564141512,0.03203867325841086,0.0649812412126117,0.11462061757848195,0.3097126224910827,8.071546376145529,0.5439651058573484,0.3663237776613517,0.28472901178274945
1,high,16,32,3,0.892029338212823,0.3525171474702507,0.0104853591048641,0.0325166602732582,0.00753811670480997,0.12887901529368886,0.020039586777083045,0.0077758439017205855,0.025659965546362545,0.04587074347158808,0.035533424402475956,0.04248008353860768,0.03332005882856087,0.1039578543956369,0.15342614029109264,7.910384281953924,0.5315680216887634,0.575748106213078,0.4960129029597635
1,high,18,36,3,0.5994129335778371,0.1391424731076698,0.24227571210018714,0.0772712395095975,0.033946388713658786,0.000955729969589764,0.013220155962790817,0.01322018356435506,0.06038220871822592,0.0988858207399672,0.1177703896069872,0.06506053200579327,0.033581680202567334,0.05611474263826526,0.048172743160344755,9.987131824754682,0.691317832673437,0.7693446441863154,0.6656469692852999
1,high,20,40,3,0.8191072369908228,0.02541089259080614,0.04608026018285653,0.034011803865996566,0.03351479639585778,0.16083574766337994,0.00715017593794738,0.004325738298760435,0.020434707665029302,0.04080659851254244,0.12010309307723382,0.05310291653978037,0.027477261246777875,0.2980306541856944,0.12871535383733707,8.6764839198853,0.5904987630681,0.4785613250701774,0.3899865106099624
1,high,22,44,3,0.9060840620751967,0.0647318017458551,0.03942557666211756,0.04139616852221514,0.01636834983334688,0.011414301978745945,0.01302078160235899,0.027106150514935874,0.009606391494430627,0.011810654350094024,0.020133949197104456,0.019700814198589444,0.01647215858210102,0.3864717705731593,0.3223411307449456,5.825462246864732,0.3711894036049794,0.2419549565251282,0.1862765459843813
1,high,24,48,3,0.9301877965700834,0.023592728841575622,0.062224610995028504,0.03992346428640911,0.0809005706766515,0.0824417773533462,0.010383449942800556,0.004521636771159752,0.06641910205371714,0.10134363552980075,0.02658132286752997,0.025070299769870696,0.08528805345615353,0.14709759763286595,0.2442117498230906,10.053330574209795,0.6964100441699842,0.5231142915939907,0.41865278496849306
1,high,26,52,3,0.6773686995038908,0.03876360775357973,0.00737586551176164,0.06300179050860834,0.0815452892077768,0.007413485989122669,0.017986513577696053,0.010214624262746016,0.026364299751228844,0.054304671836900985,0.14867791281087833,0.07866517019134167,0.21378312071716493,0.1796465723237214,0.07225707555747247,9.60000223555411,0.6615386335041623,0.3677498797299399,0.2685190847043155
1,high,28,56,3,0.8302265094849774,0.11138681943333346,0.007582955268498405,0.0799968221021779,0.05436840562267643,0.0022073799475106955,0.007278879986539299,0.017365461198603615,0.02213508741386177,0.03168366722666367,0.0668895642559756,0.031799143675315084,0.07661953964363331,0.10996810324467779,0.38071817098053284,7.792124923966426,0.5224711479974175,0.29435142578422996,0.21598075358461732
1,high,30,60,3,0.6513138561356253,0.06548451512865963,0.004078217436289023,0.07288371094566772,0.022269999059795712,0.003944028584319081,0.00849604387993702,0.026091116618220184,0.041020589955646454,0.04891564401554189,0.12199859856458732,0.05005611553062094,0.2535470730095851,0.0827774633725554,0.19843688389857447,8.973607320294981,0.6133544092534601,0.31142149418592374,0.21941833279790474
1,high,32,64,3,0.9722694504988721,0.06895710171017568,0.0010974207318442586,0.07258606984003287,0.030276345478100087,0.004084020295263486,0.0029456275405403067,0.0023422855475481205,0.00538293141043195,0.010842555069659053,0.030179279774421964,0.03144344082480274,0.0362357929689311,0.16405150897982199,0.5395756198284264,4.870750237517686,0.2977500182705912,0.43835628651132075,0.39369378377073205
1,high,34,68,3,0.5662592700760852,0.09356456029642131,0.014385985407222824,0.04954373666695368,0.04832087125105492,0.08500719062427024,0.036010047973646944,0.03948705716946428,0.06273283217043796,0.102910087501259,0.13992503475218065,0.07863389469499119,0.07027845581835648,0.09952408300763384,0.07967616266610655,12.622483682490406,0.8940372063454158,0.4266275721172097,0.29252199116539734
1,high,36,72,3,0.733210132075458,0.06640310929284485,0.004571168345438357,0.044940914139644315,0.04571698549458734,0.0036514585362686976,0.008565678890789685,0.0333602093978661,0.05203175336663839,0.10608081440669219,0.20875937103312825,0.05672207559319526,0.047843555353781375,0.20975768867845576,0.11159521747066922,9.575905210637721,0.6596850162029017,0.3969993133904401,0.2980465609600048
1,high,38,76,3,0.555600281460204,0.07370641901553163,0.05952144833748246,0.04054407197984528,0.028091949526165737,0.1505874052009116,0.007868959539610768,0.021485928303690765,0.013790822579203768,0.013066122554356284,0.041346385691970106,0.06796184390158765,0.06605186729936598,0.15487679569606522,0.2610999803742128,9.443774634051636,0.6495211256962796,0.5558054103209153,0.4583772414664734
1,high,40,80,3,0.8421596474861524,0.4038351774023331,0.009823132604992279,0.055502419546368524,0.008172438010446467,0.039689335353127284,0.014472517362415647,0.019995747919039006,0.023370939906206836,0.029435733970216395,0.0816015424528419,0.026702482026464736,0.05122277540237284,0.11189899628168588,0.124276761761489,7.600168057059731,0.5077052351584409,0.394614527171297,0.3184587418975309
1,high,42,84,3,0.32735875343501125,0.20878570684525619,0.05760983888762115,0.046515977472349604,0.10614685687682478,0.005922254747603895,0.0043443097917769975,0.03583174414933773,0.036492143159500785,0.07158691404040227,0.10033845356257855,0.055288086169379254,0.05754881509303117,0.10360841586875465,0.10998048333558305,10.890305531774935,0.7607927332134565,0.34505796283325707,0.2309390528512386
1,high,44,88,3,0.3181420118249935,0.2733984323743384,0.01576343739593919,0.09896743535090313,0.09975039614533773,0.0019023262905498801,0.005332371773414871,0.013399542533633815,0.03609294733002792,0.07039939736347522,0.16106848446901073,0.0466294673917481,0.049485129847236846,0.0604688558709868,0.06734177586339751,9.209725840274386,0.6315173723287989,0.358994154208071,0.2642665483587512
1,high,46,92,3,0.565883058507046,0.032529642421294726,0.014014912851277114,0.03968589630248969,0.012900237120619417,0.005287844001939804,0.008339831921190543,0.009801276122659165,0.07718093764028815,0.09287017205303416,0.1953100219348197,0.09477945345566305,0.11902721127990819,0.14074865916931895,0.1575239037254975,9.483528446309215,0.652579111254555,0.5559155059745634,0.45802863928638016
1,high,48,96,3,0.5732054471751216,0.025260913183250574,0.012930847743067473,0.035626260743414864,0.02312707287338986,0.001713340871136989,0.008897671903820927,0.02562987354071419,0.09318626234775267,0.0488001865238826,0.10946513543808718,0.10886923368977151,0.13558458310075072,0.15793105404276955,0.21297756399819084,9.447827227961966,0.649832863689382,0.3781568688166674,0.28068193926326007
1,high,50,100,3,0.5935990745198824,0.07694571153521375,0.003360097294537817,0.09190562734896478,0.0689139107255276,0.008247855903798167,0.002742506905338339,0.007909493244153158,0.06001549306934375,0.12379868104315271,0.21174832129741256,0.08563989173841181,0.12378122075043729,0.06435789840265949,0.07063329074104893,10.006330540516759,0.6927946569628276,0.357350073938299,0.2534308753938749
1,high,52,104,3,0.9678098022696422,0.04281616296297692,0.013737635537130038,0.04324466466659549,0.011288777311348398,0.21938717166020602,0.009088763185112465,0.009820860257396802,0.02333083185752981,0.02836778539764472,0.03038417101209269,0.037774141209653576,0.0495061753534249,0.03802828663672128,0.4432245729521668,6.382706936355443,0.4140543797196494,0.4657585948473091,0.40365043788936167
1,high,54,108,3,0.32652355449241033,0.04949806369418921,0.004510103986644276,0.0714768096059893,0.09355855992745749,0.09553017533246819,0.008522590162158259,0.02150546316541782,0.05698408860179819,0.05408626918588419,0.16868963438356885,0.07605830953190279,0.11209994163469486,0.11201643747854623,0.07546355330928045,11.400230400299533,0.8000177230999641,0.44580596078538665,0.325803302320392
1,high,56,112,3,0.6070989650895258,0.06744079964845355,0.006221503510207621,0.07159839449449105,0.048806027251610914,0.0019686676721563864,0.004982088494279522,0.0151620629064306,0.024434722531324282,0.040659441614728856,0.10548945402962931,0.06376645357146095,0.09145584200200667,0.13883969196186313,0.3191748503113572,8.524100559776375,0.5787769661366442,0.29366217412541107,0.20684562920491445
1,high,58,116,3,0.6030510142539905,0.1524507895746137,0.039886190735283045,0.050254353560470026,0.09130207211381641,0.04218621553951728,0.009885727195971765,0.0059216270483287425,0.025877422565574695,0.02447401189098781,0.05230055526374229,0.04721304497369495,0.062465561474507415,0.07332012242984698,0.3224623056336448,9.090577770202414,0.6223521361694164,0.4652940889197904,0.3719412684943779
1,high,60,120,3,0.9909901624402416,0.0389401506404388,0.03069448833586864,0.07466035615404995,0.03017809661390205,0.02689519822991278,0.0028958624357414953,0.0040971161860117004,0.007087137039807752,0.004860974582097827,0.035133678102930575,0.02308117592992145,0.0384928040965637,0.09808329094037274,0.5848996707123805,4.961994210425247,0.30476878541732666,0.587938150463881,0.542222832651282
1,high,62,124,3,0.8118374260705967,0.1441746555264128,0.00578155822554212,0.1457077287636842,0.04680816708782026,0.030679627955366544,0.0035848125821126365,0.01331311911926289,0.011080250810419183,0.01322268485891607,0.016722475079082474,0.049759907694389,0.1569374014281917,0.07437627387895093,0.2878513369898492,8.04255903250239,0.5417353101924915,0.4090387386075946,0.32777844207872087
1,high,64,128,3,0.30075955666970317,0.05104905513471629,0.07446151463407234,0.08487065470869169,0.03964854434202672,0.009898175644484846,0.06124578718020751,0.016301769703975344,0.051658151891915194,0.06617219046446976,0.16888318388697895,0.08912646442622887,0.04855195915427808,0.12123680878846146,0.11689574003949281,11.80645622536092,0.8312658634893015,0.3777455164078597,0.2530556368844645
1,high,66,132,3,0.5307436920837484,0.02259726510900755,0.021864101022233767,0.0311946617651943,0.04701756987508235,0.013947108813368742,0.013480779883199377,0.04104084180370234,0.08911870078782015,0.2607867153576439,0.17160743379226945,0.03471446959917663,0.032413594395148244,0.12115933732578596,0.09905742047036718,9.495746815049488,0.6535189857730376,0.3224994088477819,0.22447156098182625
1,high,68,136,3,0.3701676679571993,0.08703540329027296,0.007850458143860418,0.05933687212841273,0.04422887321810849,0.003911533482261239,0.008183143664241131,0.02295797588826973,0.03480707312453961,0.037348899333392895,0.12489873117310486,0.11460571644608675,0.11452652561482052,0.08049438425667382,0.2598144102359549,9.512709804671571,0.6548238311285824,0.24065421253460176,0.1424306378653144
1,high,70,140,3,0.43004478238410876,0.06406368593509737,0.008794388196938365,0.16986628417315996,0.10558793015455854,0.006328970267764522,0.0042419566266859035,0.007488447688009567,0.03961958731560484,0.028222682826716534,0.08092217241792123,0.08043488536202702,0.09986242976498526,0.09098092026139419,0.21358565900913673,9.589905234522545,0.6607619411171188,0.2696636461849616,0.17054935501739377
1,high,72,144,3,0.5702790732479033,0.039022696428131984,0.003987427163198447,0.06939303784151142,0.022284975211128013,0.001866911521092533,0.008611731969043995,0.018007946096250387,0.06605739627668668,0.10280617909442372,0.13291099227883668,0.10191909538777388,0.09582839346681851,0.10134062357305815,0.2359625936920455,9.538513012644929,0.6568086932803792,0.32322918467358047,0.2247078806815236
2,rest,0,0,3,0.2784771148323532,0.0696070672598289,0.07438905596630226,0.07877163910087646,0.04882587451799605,0.04216200502813485,0.10405456620675665,0.07224059044937181,0.07848320301695214,0.09474453983167183,0.06410759665982248,0.05366093481156251,0.0637908459455595,0.0904254117303702,0.06473666947479442,13.617364505169125,0.9705665003976249,0.5660429058306858,0.4204579307710421
2,rest,2,4,3,0.29330427828777805,0.02490844311352577,0.09565148710997982,0.029255881661771895,0.06687177080402334,0.042974988763418674,0.044961549640728855,0.13345884855564089,0.11260990982644611,0.13690517694523285,0.16533631435949328,0.04687613284587453,0.03440714041690603,0.045673954080067004,0.020108401876891027,11.459318956700486,0.8045629966692681,0.4779179909220942,0.357233541421704
2,rest,4,8,3,0.5174252005658302,0.055231970413659986,0.058117139012567993,0.055207293566302384,0.06872290934105084,0.04764226015793021,0.05142868684219171,0.11560063198102968,0.08742091094994005,0.06935835155209916,0.06931797143590415,0.09561874294501867,0.07710115890142812,0.0729230163710412,0.07630895652983566,13.582432115210732,0.9678793934777487,0.5853418385005349,0.4401599294788726
2,rest,6,12,3,0.17286283652086773,0.042048648385492875,0.10584971009916733,0.10584168513463599,0.11403212764175667,0.061037730216696034,0.0911611557582238,0.10061291687271309,0.07151019838625486,0.0624179525542315,0.053950600255051516,0.05761645833073746,0.03427316242805685,0.06481636527283122,0.03483128866415067,13.065387651285725,0.9281067424065943,0.4183369961901093,0.2791209848291202
2,rest,8,16,3,0.2512244829014923,0.041635467631484444,0.05662481022865442,0.07548183181903818,0.0802877375354894,0.06089755055609478,0.04667569364338249,0.10125906034178879,0.07955008484559069,0.07266413007689536,0.11097853449749623,0.07686425420932508,0.074351647564327,0.07951686250893907,0.043212334541494125,13.480123955463995,0.9600095350356919,0.5348474975668835,0.39084606731152977
2,rest,10,20,3,0.27797476959996,0.023037193049861054,0.0410966626345474,0.04211095968512036,0.06266529490043951,0.06632155616158368,0.08014751613465347,0.07949958667673962,0.17249499110954175,0.1117347925725947,0.10095641060321449,0.0805711794189125,0.04915452217351365,0.05524265831457086,0.03496667656470666,12.38276860983535,0.8755975853719501,0.5685660877658528,0.4372264499600603
2,rest,12,24,3,0.16598819388023278,0.039936651760293505,0.08100276418093337,0.13779482030485307,0.11295925988202778,0.06790516773259242,0.036164973142114976,0.05181643304697986,0.026093125934266895,0.09201184657950834,0.08569430503814796,0.08255382703406398,0.07127577342451537,0.058574485762713686,0.056216566176989016,12.872801254584557,0.9132924041988121,0.6122343188011167,0.4752404581712949
2,rest,14,28,3,0.1564560074439419,0.043561700747515815,0.03529189696132039,0.05346091938385707,0.04926601586515231,0.05496394543389603,0.055651550741951626,0.06244537058300883,0.1532558414420652,0.10686984121143919,0.10310349079051259,0.08718799140816216,0.07173923965627085,0.07279830829101987,0.05040388748382811,12.891312591372003,0.9147163531824618,0.5630780972828279,0.4258706443054586
2,rest,16,32,3,0.6810240005477525,0.028263655866754226,0.025733005484171283,0.03985097916694759,0.03209462027868847,0.033087855373843414,0.5276564188152252,0.07564112641903642,0.07039803953313725,0.02209507887598678,0.025593050838433374,0.017961261813936605,0.015594432267091651,0.06572731660228154,0.02030315866446626,6.291263284573425,0.40702025265949426,0.7458465355936403,0.6847934976947162
2,rest,18,36,3,0.23034750572626203,0.03758344098552318,0.05253218225501097,0.09440695962774857,0.10592209644479786,0.126317604617483,0.1299656377567456,0.059196514001234705,0.08763416663343683,0.05606676052493044,0.043420453910131655,0.03721075118869416,0.04842476786683237,0.07500965461198751,0.04630900957544325,12.798604824331996,0.9075849864870766,0.6009205593663757,0.4647828113933142
2,rest,20,40,3,0.46280767456241256,0.09659192955339731,0.05454601671712755,0.13643061231102271,0.06702057863855791,0.03727552960782958,0.02900155469664688,0.06422130564495492,0.09384351823992787,0.07211580640586028,0.0835062617637932,0.05474840377394166,0.08159191019228826,0.05760382405092492,0.07150274840372696,13.124552816492733,0.9326579089609794,0.45860911775571744,0.3187104314115705
2,rest,22,44,3,0.24828565275789344,0.1138307967451201,0.10221928945128003,0.08408442179620033,0.0907389816638593,0.10060019010912465,0.06121617267700372,0.10030377458334562,0.039391915997432775,0.025799077558762467,0.029951019991679838,0.031254046949744305,0.03823927821315571,0.054720127321083736,0.12765090694220727,12.438849522379744,0.8799115017215188,0.3692587628410088,0.23727203758278098
2,rest,24,48,3,0.15028488916352611,0.042805944398927986,0.05213692694155679,0.09814953406666839,0.09303573074988071,0.052351011148896204,0.04662375130720422,0.050388059289171075,0.23861243622349118,0.08674982026021519,0.040522217866133976,0.04047506325906358,0.05099064600001944,0.06087389090476102,0.046284967584010156,11.747632389304453,0.8267409530234194,0.5790557622926118,0.4550446193390989
2,rest,26,52,3,0.15074057793033893,0.10970812638187796,0.05102778850179883,0.16819095839559242,0.07607863929595986,0.04747278757045312,0.046876354963852895,0.05764158081163584,0.053054321529653316,0.0592269172879997,0.07445329109851574,0.061593500131568876,0.06236291661318238,0.057704809877243086,0.07460800754066578,12.964808152328917,0.9203698578714552,0.6052099707194234,0.4671544920387051
2,rest,28,56,3,0.24515614893953305,0.03174211625495842,0.040680783992612775,0.05999507076392486,0.041853041111239546,0.06075394264257397,0.06907231722153843,0.12013562101818061,0.07398158752648978,0.09175620222706513,0.1268328287188147,0.0768884879784324,0.09107044348464258,0.05829487759296562,0.056942679466561084,13.050044505065722,0.926926500389671,0.5674351068132082,0.42839613175475755
2,rest,30,60,3,0.13195076356189184,0.06176541491106908,0.059197692126436455,0.10942500615297679,0.11061286195427943,0.17000672888477844,0.08057984898070658,0.056844661730734464,0.04472229223302432,0.04504963656016849,0.03665905088952058,0.04942080913307724,0.06981893232633443,0.038875071268436624,0.06702199284845682,12.60157424894313,0.8924287883802408,0.38480054498820415,0.25093622673116805
2,rest,32,64,3,0.33941524803328926,0.029619286255258146,0.05025875604342956,0.03674417906678777,0.038767733101005286,0.048079002798645076,0.09948540012184476,0.09884094494390389,0.08689923694740932,0.10999521290895473,0.12793523499274506,0.07030207778981866,0.07026476753300315,0.0904834232832758,0.04232474421391886,12.79192806640554,0.907071389723503,0.5317782388393263,0.3957175303808008
2,rest,34,68,3,0.2360366990572858,0.06234180548992681,0.052277826290807336,0.09528193532743624,0.10068710048701075,0.08289112984976862,0.05996575236084617,0.09832286885897965,0.026929440402057258,0.05354199456309285,0.06485969907622671,0.053460997448017356,0.08811328514099198,0.0672674025186348,0.09405876218620358,13.352043675334423,0.9501572057949557,0.420028170239525,0.27750458937028166
2,rest,36,72,3,0.1706855573589207,0.051125438751935155,0.08503768529907736,0.04404190870412354,0.06525291442509175,0.05731947642736363,0.09282179258078495,0.0473288669017593,0.05965711618411594,0.06620086979197795,0.07489118797882459,0.08506580433096972,0.059965934336886115,0.11439854749706137,0.09689245679002854,13.473557505789616,0.9595044235222782,0.5101764239109107,0.366250760382569
2,rest,38,76,3,0.4666986403736102,0.07425445262663692,0.05439620096020785,0.0993353182357484,0.03900177880135325,0.038156785361488754,0.026911138919218956,0.04930109791455218,0.06426402188041386,0.04016962320472511,0.051546504677769625,0.07323912806959666,0.09860246125491197,0.18972341409736954,0.10109807399600694,12.218547449384339,0.8629651884141799,0.4370338978295354,0.3075891195674084
2,rest,40,80,3,0.23963431809356592,0.05452098531398448,0.03175397978168575,0.06411486162757861,0.09145243900222667,0.05263061778856356,0.08290333560827594,0.062262593136847434,0.03921757987786285,0.057105137604969734,0.0473581230953628,0.11914307248172488,0.12779079811657218,0.081784247088205,0.08796222947614021,13.029331471907868,0.9253331901467591,0.604172684370797,0.4653727058487831
2,rest,42,84,3,0.13460042954633578,0.03373507724293037,0.10131189639145095,0.04982953442052651,0.09448972378458621,0.06893964778996989,0.0677597161040132,0.045008499116231934,0.08881105119481339,0.09869883707644792,0.11238688869522623,0.06190377971625904,0.03211041785487159,0.0921840451253499,0.052830885487322926,13.092195860484857,0.930168912344989,0.4554258940325563,0.31590055718080795
2,rest,44,88,3,0.17457927426175124,0.058702325683734624,0.09489773053146648,0.05633835303832882,0.05143050066691544,0.09028245541540363,0.11733828944736988,0.09806167076170609,0.09293144059976301,0.048908622776657376,0.07468583043353959,0.06575210142471179,0.037395647704317074,0.06332754400697685,0.0499474875091095,13.32025071327235,0.9477115933286423,0.5476175343300342,0.40546079533073787
2,rest,46,92,3,0.2298859318540127,0.03750330335697267,0.033713148733719375,0.05012024212114396,0.12151800562415835,0.06304677596949042,0.06576553634379836,0.03800506265126213,0.14293658515037194,0.12932756986210964,0.10839344931219841,0.07927638196186303,0.05385461971964846,0.036816775526525694,0.039722543666737546,12.335915161018976,0.8719934739245366,0.402909242095282,0.27211022100660154
2,rest,48,96,3,0.27651087815963776,0.08690116082967468,0.05159159684908475,0.11656572711010384,0.05092405070123775,0.04279909782681339,0.12110531810659342,0.03989640241833239,0.023155757135009187,0.049339295169031426,0.06229789180526699,0.09698771380728048,0.09903738462007863,0.045130755235524414,0.11426784838596867,12.654612374038038,0.8965086441567721,0.528316738603501,0.39384044197998525
2,rest,50,100,3,0.1696575176523336,0.11539848860187833,0.04155481926568542,0.07619646086486802,0.06386877211690048,0.06259536261892433,0.02911049456839281,0.07084152112062796,0.08464281065290434,0.06453776923120373,0.05021472966970911,0.0727735304630155,0.061307204599681114,0.08446178142600007,0.12249625480020873,13.21121855990361,0.93932450460797,0.5711877111564747,0.4302890354652792
2,rest,52,104,3,0.24880890991017782,0.05172257751248695,0.042161910722143425,0.18730655962971535,0.08150186376345446,0.06384884986769393,0.05732623009906468,0.042390186994747885,0.06101514492725357,0.11424141744071423,0.05919464633037971,0.048302017241604996,0.08472250855223126,0.06098522216644407,0.045280864752065504,12.55784930190457,0.8890653309157361,0.5550988651331236,0.4217390654957631
2,rest,54,108,3,0.24310954798864953,0.07159585155951091,0.059060711316780465,0.07430466923189,0.08849418802800636,0.07865923459981257,0.07491959064073772,0.07437080747747907,0.03254985634111176,0.06279003793348913,0.08814111343487757,0.05574261264442975,0.07998681445350145,0.07455555811216445,0.08482895422620879,13.683624692779977,0.9756634379061521,0.528128191229084,0.38177867554316125
2,rest,56,112,3,0.5113372844495861,0.02619292823907102,0.039277536709939144,0.03140353684607741,0.04471136709964631,0.051786550118830085,0.06897028477767689,0.06219243008949398,0.1931347349224634,0.10767113948298353,0.16903848607045296,0.10057773877188769,0.03259369797358218,0.04959870042014906,0.022850868477746433,11.208038139991503,0.7852337030762695,0.5474886655876224,0.429703610126182
2,rest,58,116,3,0.23013376896500803,0.06812826349006075,0.1467014297197186,0.058104651255972216,0.06304511690297601,0.03822663661747771,0.03097490505381453,0.17319995958929557,0.09421396598079508,0.0490306115588317,0.03603663093084421,0.046151511924568595,0.048449741853139716,0.06591225070163786,0.0818243244208676,12.220244056372104,0.863095696644008,0.5488524979068685,0.4193881434102673
2,rest,60,120,3,0.14576749253563678,0.046733227931852646,0.07959751724169697,0.09139274920004209,0.07830732439479207,0.08901738500764353,0.05572522858308274,0.06921211866694871,0.06845074668555245,0.05871122856393773,0.06573192177963533,0.09245767161863422,0.05833368756398347,0.07973975057775343,0.06658944218444485,13.745316617585555,0.9804089705835042,0.49321268333515866,0.34615133774763307
2,rest,62,124,3,0.3890179753523998,0.04460085982988235,0.03705947750613776,0.1095446899568423,0.13861733256197117,0.07430498143094165,0.1981309763463117,0.11640388731573259,0.0675058519953906,0.0447779862145242,0.014685406722594439,0.027325256704173725,0.04321932135472614,0.05715878079600426,0.02666519126476692,11.230623230790355,0.7869710177531043,0.4994367981466239,0.38139114548365827
2,rest,64,128,3,0.138156492499546,0.05972553922473732,0.05827852950991174,0.1205755527571361,0.10845522629251197,0.08169895855853247,0.10611462042605378,0.05657581226687702,0.05299847571237463,0.047704604545745675,0.022320740579927178,0.03811904318286892,0.04986019950820259,0.13305722286787386,0.06451547456724681,12.680681764828767,0.8985139819099052,0.645262511288311,0.5104854140018252
2,rest,66,132,3,0.3573184666136114,0.09935364321355605,0.138083900475178,0.08080765711917519,0.06393510861510657,0.03912868195086752,0.065982256763621,0.05770738667773932,0.0610578191156664,0.05263731883432157,0.058290664610280235,0.04079207171276618,0.07703609537320544,0.07981076255537284,0.0853766329831437,13.248719728867796,0.9422092099129074,0.34496725301357195,0.20363587152663584
2,rest,68,136,3,0.5234538861089494,0.08911285545886183,0.265057395322116,0.08552423600092185,0.0950989861632519,0.03853245099856946,0.012765906100636791,0.02520284067259484,0.024505378983664165,0.0125469353867512,0.01391776651846088,0.04443705011781687,0.08538623490517391,0.1102355489936602,0.09767641437752013,9.968541347979263,0.6898877959984049,0.32775334118970856,0.22427017178994785
2,rest,70,140,3,0.24059511777987597,0.05172183746188945,0.045155788080170324,0.09249839045585573,0.09541216244772356,0.08394234234428478,0.1387487123503786,0.05016807036146374,0.08828438482785601,0.06634976576064713,0.024420227190421553,0.03663147076793754,0.029951434627977957,0.1355493750231213,0.061166038300272584,12.459963638725316,0.881535664517332,0.5151874480665714,0.3829570983889715
2,rest,72,144,3,0.619046582240103,0.11693339366821465,0.06918548145181294,0.04967106739893062,0.061439021529937556,0.04572357987559276,0.08988566979453098,0.07758931205991394,0.055295747902560755,0.04648968921324597,0.06529592457985617,0.050322177298506174,0.056180843854310374,0.06550849595626237,0.1504795954163248,13.051272225071477,0.9270209403901136,0.6221874024124222,0.48313426135390514
2,high,0,0,3,0.5781443166647092,0.050219032614632675,0.05476063143517385,0.09669389296264237,0.05668094373691476,0.02946863345840954,0.08854842341228293,0.05494420130076039,0.14709954604010858,0.06187000003217225,0.10611551906631003,0.07299496728939797,0.05092500914598689,0.057548268445041545,0.07213093106016626,12.995473373687137,0.9227287210528566,0.5218739007927575,0.383464592634829
2,high,2,4,3,0.647287058948305,0.03687115861154211,0.01389713385569619,0.07276488959100991,0.04444794294929657,0.03418588486124295,0.036908296966208565,0.0929913397851535,0.14439614219968908,0.08414012858518835,0.028104068086853975,0.16372335729464316,0.06893155804676807,0.10038492693098604,0.07825317223572165,11.788177200435532,0.8298597846488871,0.7211957564571334,0.5967167887598004
2,high,4,8,3,0.359830489281191,0.06525942336376031,0.010575284061542269,0.1170759487430045,0.04855864352297882,0.06340945750353942,0.08975359507731014,0.05294829499792148,0.0898527410797755,0.05587373264725595,0.04440042385501225,0.08984719176718454,0.07249837031286978,0.09090570328998004,0.10904118977786513,12.85105099602841,0.9116193073868009,0.8356592775964536,0.6989163814884335
2,high,6,12,3,0.6425070598107311,0.07574941439816157,0.04649662922436012,0.04410931281986449,0.06952244666795974,0.027923950817718445,0.06188827923001328,0.14458974575466982,0.20737256349375696,0.08241603412780701,0.029602524901314025,0.059619410506413305,0.03415393271255022,0.036554296330696116,0.08000145901471505,11.65227462950828,0.8194057407314062,0.6085090016210677,0.48559814051135675
2,high,8,16,3,0.46727774574541525,0.03893092848465451,0.05066317619089205,0.07267426372217162,0.10200390458239474,0.057970274371807476,0.025359813783601155,0.0465115994914675,0.08387851315731057,0.11257147423018946,0.16045230551859488,0.10844070159079676,0.047724618854025985,0.042732326292890144,0.050086099729203186,12.428173155033294,0.8790902426948688,0.6031177816899709,0.47125424528574056
2,high,10,20,3,0.5867089848416445,0.05561617390876403,0.019060346216647813,0.0883392091832374,0.05813733133603607,0.06694624184301728,0.040848456703130816,0.15824624507678625,0.0972685889438262,0.06671321409458435,0.12677083101837508,0.05403383560310424,0.059610082038931804,0.05020923478692415,0.05820020924663477,12.552472871463097,0.8886517593433152,0.814141097815402,0.6808433339139047
2,high,12,24,3,0.46254351178334036,0.08045781111506164,0.07605540770968186,0.06599262078258976,0.12171354416573099,0.04291958197035971,0.07032810202145122,0.08021233852060891,0.04280117737446196,0.08130837509363517,0.08402546147866496,0.0941503065805732,0.04171616658271792,0.053306481657465044,0.06501262494699733,13.39122561779283,0.9531712013686793,0.664608956739482,0.52163327653418
2,high,14,28,3,0.5421847604101772,0.036787847064516994,0.03948806819447587,0.06774855358232079,0.05309032256448327,0.03260131308238524,0.16786081097779978,0.04327675141058339,0.13054623988034686,0.08331225539046869,0.0717783356968188,0.07293434581990782,0.036095160174874026,0.11270793789567164,0.0517720582653466,12.262091918930484,0.8663147629946526,0.6184997799819663,0.4885525655327684
2,high,16,32,3,0.6189645779189632,0.03412105302656302,0.027475303405863936,0.06349461519013637,0.02944763760176644,0.0362352027365867,0.07125738449131375,0.12420016453959248,0.1260722540353112,0.08136396086564948,0.11195304026269351,0.08098986195535422,0.08025628580948421,0.0764585609547464,0.05667467512493834,12.628910030925146,0.8945315408403959,0.7423707625448814,0.608191031418822
2,high,18,36,3,0.441276828144029,0.04649683199942918,0.029378376391764795,0.04995377959783832,0.05014818272513066,0.04978967259589033,0.16211067367229368,0.13404317677062905,0.018041623624588422,0.07749937073610184,0.11332491981080692,0.06475915303770373,0.04696322885226222,0.09934490141674358,0.058146108768817185,12.096057775879943,0.8535429058369187,0.6280067856355869,0.4999753497600491
2,high,20,40,3,0.6166723510304348,0.04312955610936341,0.03282917917789362,0.0667419103143441,0.08531971881939966,0.05585734525109824,0.07248234673115604,0.04606998337431877,0.14409862713785979,0.06979970099436465,0.139173984358455,0.0848482027283251,0.05404245793731638,0.06407224197082982,0.04153474509527529,12.758254615221395,0.9044811242477996,0.650113325702712,0.514441157065542
2,high,22,44,3,0.5485666602292384,0.07680596472878436,0.025685976256629973,0.12644958288985206,0.07053319235056883,0.04299871373619902,0.0647294597567395,0.0713828618892129,0.132506741482616,0.0644013495632564,0.043931686414098975,0.04983052541295744,0.09180963267879963,0.05123676140923623,0.0876975514310487,12.893606689514387,0.9148928222703374,0.436555701359843,0.2993217780192924
2,high,24,48,3,0.89518032259337,0.014333023652021992,0.024938637961915165,0.026414925189993183,0.07587073723242639,0.019726179584020117,0.07938392333485429,0.06580555629739412,0.3536469570872156,0.20155427099813622,0.014028005968743361,0.04781958732155431,0.029833531591391804,0.02420973495762834,0.022434928822705123,7.987509803501298,0.5375007541154845,0.849443487256865,0.7688183741395423
2,high,26,52,3,0.4995505701300942,0.030158739022899735,0.07587558012928006,0.06329082382036944,0.04837849584215493,0.03139564830038082,0.05820144097132718,0.06439482637257109,0.2183500856279982,0.1456677131653211,0.07854184856655053,0.06526314602554804,0.0321162353848932,0.057624839699281324,0.030740577071424413,11.542014443003517,0.8109241879233474,0.7332228546833018,0.6115842264947997
2,high,28,56,3,0.5350371441324699,0.06872376571247643,0.04587732019354639,0.09486148526799042,0.073287593428742,0.02869152531563376,0.043383871243417506,0.20130591187177596,0.04056039740147271,0.026012907180027998,0.048347918397057814,0.10157964558746968,0.07040205936958115,0.07938711056179111,0.07757848846901716,12.073337070686122,0.8517951592835479,0.6271602314264312,0.499390957533899
2,high,30,60,3,0.5989993554638711,0.0501197665139089,0.01847322500855133,0.20442910177083487,0.07734954242804876,0.02788700982909239,0.19067903023833702,0.03408465172712915,0.07969633696001507,0.06702799915757175,0.05198261935782749,0.06775631079633483,0.04330017124176878,0.041489539889982864,0.04572469508059668,11.07989889830936,0.7753768383314892,0.861027601823834,0.7447210760741106
2,high,32,64,3,0.2714785914048376,0.08332251853943892,0.05767631196733533,0.042562650905720395,0.0724452196601248,0.09877995075914238,0.06213202910758451,0.1309691785412265,0.06002092192439737,0.024843308552493695,0.06694515434789264,0.06574858029127754,0.035445720751425956,0.11993041409218182,0.07917804055975823,12.907488350853175,0.9159606423733211,0.7232011624857084,0.5858070661297102
2,high,34,68,3,0.693133758770848,0.10017798746574148,0.07267213931981523,0.06404030262483335,0.10555610590665129,0.052480808862275366,0.15671702460646972,0.04377187612621237,0.15421090074159025,0.04857957972455166,0.04902541680276527,0.03986590434239221,0.04224199022104525,0.023073420426516757,0.04758654282913974,12.103458356274759,0.8541121812519046,0.6891522932679011,0.5610354660801153
2,high,36,72,3,0.6616249016772797,0.0511651102878015,0.0895516422050652,0.1097758678976113,0.04439310738334143,0.03940372591812786,0.07814110170990016,0.042568960763094875,0.2385813405525911,0.053523735887292014,0.11573041670226294,0.037046967742427925,0.028940956745641705,0.03554356183119941,0.03563350437364265,11.248014270655755,0.7883087900504427,0.5808482356167708,0.4626019171092044
2,high,38,76,3,0.8144137095723554,0.0461434866754954,0.08516553700851313,0.07840449378900959,0.02414941583022225,0.004397337853305901,0.06818188093993414,0.09250831291865712,0.2511050833588029,0.0909386145712575,0.07501119030561232,0.034295876072288976,0.045986846530241834,0.05542714112469882,0.048284783021960195,10.931975268059716,0.7639980975430551,0.7310610156928385,0.6164613010613803
2,high,40,80,3,0.6238891066946193,0.03540926506368624,0.06355542309254039,0.060560327467241555,0.06112346621638504,0.043931960406286656,0.1078587227989374,0.06804296482530539,0.14954891646919144,0.06037841858158989,0.07553234345587324,0.049700483495692296,0.03477253626506761,0.16243073884656814,0.027154433015634753,12.21115021977272,0.8623961707517478,0.448605459450639,0.31924603383787686
2,high,42,84,3,0.4732874263967086,0.03896812596493056,0.026055032464584287,0.0836662196926335,0.0893649730568918,0.05222676787870444,0.11864379924018996,0.05475554530876894,0.12048186031799767,0.10019266816521392,0.028159968263866676,0.08163321123611879,0.05683953534941197,0.08867471453441275,0.060337578526274756,12.791816062847616,0.9070627740652012,0.7749556979609913,0.6388962818512112
2,high,44,88,3,0.45155915225932586,0.05885922389414689,0.024463082075953532,0.08614789850193287,0.06918664485190695,0.09147641816244059,0.16358146937570964,0.07742027177997396,0.1319627948427736,0.06253136550142892,0.03390449713024915,0.046494660113988624,0.051896012454675365,0.03641934991932212,0.06565631139549774,12.397595015194527,0.8767380780918868,0.7362715962992183,0.6047608845854353
2,high,46,92,3,0.42039412299519935,0.04907940985217448,0.04589245820680103,0.09723265899668326,0.07987820290173382,0.03209938483956236,0.05472765465294278,0.09436336510100851,0.10748666795737313,0.054760516834465936,0.04147976817073471,0.1291827834558167,0.07345511394147282,0.07532719459411923,0.06503482049511115,13.059275134277463,0.9276365487905741,0.771133213636738,0.6319877313181519
2,high,48,96,3,0.34938337138228376,0.048679265984413585,0.06872594791743812,0.047320689328678445,0.047626592953032634,0.02048319609811201,0.04954245699464059,0.13743425983464772,0.08672824859919422,0.07048956700535579,0.027551034180584116,0.12172006685191991,0.06808833687644367,0.11852346687993645,0.08708687049560274,12.483084194484887,0.8833141688065298,0.7553239341901377,0.6228268088691582
2,high,50,100,3,0.41956453053402387,0.04094163586862547,0.02934624740333328,0.08184265079443097,0.061745994609246645,0.024458020303415297,0.14785775130851672,0.10671821131009886,0.09362822380329715,0.05910486292061389,0.09141925478947643,0.07973373255110314,0.03952196270110239,0.09651177830453157,0.04716967333220815,12.553979905518899,0.8887676850399153,0.6449480384033165,0.5116328856473292
2,high,52,104,3,0.7795349941584266,0.09776742046047796,0.03542206539970751,0.08444589420146102,0.08917604552363102,0.021206319843842237,0.10032601851404353,0.06179867209729852,0.11815647601677788,0.06239610217587624,0.0666784021415479,0.05941919584670005,0.07252493911843236,0.040788497513039354,0.08989395114716447,13.006856208610941,0.9236043237393031,0.7230390360906938,0.5844983875297983
2,high,54,108,3,0.41616232455044366,0.047258272598047775,0.030566994819121816,0.07979539009174519,0.04899284679799987,0.03860539833341275,0.10552827798919301,0.1854201260459697,0.15503143906823183,0.05660204123252975,0.032603735476588236,0.06705750742020003,0.05530351451654921,0.04690108137447432,0.05033337423593682,11.871958400583893,0.8363044923526071,0.5665194574177874,0.44107378356489635
2,high,56,112,3,0.46263749113486313,0.044725388604684294,0.02540957033225223,0.05200431893622037,0.03845575248152286,0.06097399201544329,0.09617157780106027,0.1472666375647534,0.11670081655076966,0.06686861483007009,0.10407268310465899,0.07220929254216699,0.06770164703039748,0.04957418494152465,0.05786552326447534,12.706927462356314,0.9005328817197165,0.6031579872452646,0.46807805498730715
2,high,58,116,3,0.3501197464721685,0.03480932598610578,0.06622458984748207,0.05667657109414952,0.1554879804357176,0.06449197345874323,0.24551468834418938,0.0523129140240319,0.048014246529417826,0.02655936247622583,0.042257140803270386,0.06708252025150203,0.04151340737066673,0.04667144804837872,0.052383831330119,11.14932593293629,0.7807173794566377,0.7390338498482172,0.6219262429297215
2,high,60,120,3,0.41681849320081166,0.07561550738343012,0.09695857954221376,0.0681948140923824,0.061405930354229574,0.04183660832567309,0.10419497796137332,0.061476952498309624,0.08882990932321186,0.04666336277384431,0.053468395412363055,0.09083753001575551,0.07698595068190897,0.07007153206592526,0.06345994956937899,13.559109179295952,0.9660853214843039,0.6976250075295539,0.5527122093069083
2,high,62,124,3,0.2820626422079743,0.022835616966032465,0.04578395855541082,0.040874194514005785,0.043887275000349966,0.08086850590354709,0.045376183604866595,0.06197436885373106,0.09699942534070964,0.11393581621415345,0.1398869499188438,0.08081168950206823,0.04441553723860692,0.12091000213896358,0.06144047624871062,12.53892785759566,0.8876098351996661,0.5663620797622724,0.43322060448232247
2,high,64,128,3,0.3572630445031555,0.04598061101937331,0.06430952064154676,0.042441570241930356,0.044306750551960886,0.06689576314630889,0.08654337638676339,0.06953700701011735,0.15898187954133228,0.12453995471331916,0.08833733238635898,0.047348490822079245,0.05347241464854126,0.06311882818397105,0.04418650070639702,12.778065723693409,0.9060050556687238,0.6732984268859958,0.5373976685356873
2,high,66,132,3,0.3654014314088663,0.03975096669881814,0.05440645268214262,0.06446983430705693,0.0453616027195772,0.0671918483479364,0.14094382234410238,0.11696664201500753,0.09062812414724286,0.0824302813458119,0.03662835819567904,0.062078409555247065,0.053591775216944845,0.09225489106052169,0.05329699136391139,12.964090017687289,0.920314616745176,0.8084176653894029,0.6703704728776265
2,high,68,136,3,0.4440256982698775,0.06275766036366526,0.04197003884735718,0.059881712249571735,0.053802317012066246,0.031448889811473056,0.048545728421455187,0.12070652923023673,0.12009063082553664,0.08093812467655652,0.09073000892326898,0.08787910410942314,0.05643918818743444,0.07289791649113998,0.07191215085081486,13.136790061577134,0.9335992355059334,0.6571063773713266,0.5170664920454366
2,high,70,140,3,0.654517773832341,0.04010455213611654,0.03347456088688097,0.12542827257747258,0.11152680641852306,0.0344867018051913,0.05846885672000745,0.06513340061540349,0.07906733321290085,0.0646203138061405,0.09695679151616383,0.09338677431714192,0.08324556089791359,0.0544966899209818,0.05960338516916194,13.022211251675182,0.924785480898091,0.6613584455556691,0.5226406234209555
2,high,72,144,3,0.67787334070447,0.025911897879741633,0.01579116598721795,0.058500295829700025,0.04754169406090176,0.0504167550513989,0.20694216067159166,0.1109063192773222,0.11717532699507686,0.08368238399755884,0.12773509673876263,0.03532434139373538,0.05757517215641713,0.035967501949006775,0.026529888011568258,11.151520776470923,0.7808862135746863,0.6703179866356586,0.5531850545994557
3,rest,0,0,2,0.41608109376781993,0.0943081499747325,0.09331002686550599,0.03856136275796963,0.12962337779968394,0.05203203293380842,0.03487974437927483,0.03539539541996148,0.06428211836692364,0.04494164269208633,0.07877017647778407,0.06016091197549642,0.06805432315036841,0.10543049079912822,0.10025024640727617,12.926273938767777,0.9174056875975213,0.5272209086557593,0.38961005551613115
3,rest,2,4,2,0.6721672618708976,0.058935255906989226,0.07609668042660775,0.08006836075690225,0.07765177970420234,0.03753069396056469,0.025781373443280683,0.0983150889933512,0.09072100705803166,0.09923780494889325,0.0559543523803559,0.05244615953595707,0.06302679657491403,0.06784743560023135,0.11638721070971872,13.184626661147892,0.9372789739344533,0.651522481967392,0.5109306358772241
3,rest,4,8,2,0.24194034719118485,0.11393645390747764,0.09013318373474488,0.10021025424162741,0.07299638749629168,0.09530888549847887,0.054758284203469364,0.07585337292228851,0.03295447842240352,0.04671443580866011,0.032016448633381135,0.04325666778442445,0.05635951310842031,0.07759006534982792,0.10791156888850434,13.026782490955883,0.925137114688914,0.47776640392530795,0.33899583672197087
3,rest,6,12,2,0.24990786024532027,0.08473948446289899,0.1131403345328232,0.06845892968836198,0.10392635702802343,0.05899399885241685,0.09963425430862068,0.07229729639964977,0.07009363029123718,0.06908167058514196,0.04910726683606823,0.037722982964936286,0.0476645762869896,0.055526695711820576,0.06961252205101107,13.395211820569937,0.9534778323515336,0.520530019307444,0.377508344454714
3,rest,8,16,2,0.7475071207291812,0.046218485721713796,0.6180256217075989,0.030767650056283947,0.03034387632225241,0.035406288133287014,0.05040772224754295,0.012753005505114288,0.020503119996367763,0.010592820273394723,0.0116689526277272,0.02408379192027657,0.03565969324428658,0.027796205766372872,0.04577276647778104,4.984684139871531,0.3065141646055024,0.6506681844267115,0.6046910597358861
3,rest,10,20,2,0.17736177012772747,0.08269867213330076,0.07291143189890471,0.05432319436548,0.05812800870561416,0.08474179487506263,0.17201246612805962,0.04667214690187742,0.09719792356841572,0.06807082692610182,0.0617310485557515,0.04280892826364232,0.05136211186593348,0.03513047106792934,0.07221097474392667,12.830613628233603,0.9100472021718157,0.670660239934369,0.5341531596085967
3,rest,12,24,2,0.14986613193176887,0.17242613705979448,0.07884249407780804,0.05667165514842942,0.04746638099563824,0.029087428311197847,0.04306132213732229,0.04803666180330053,0.04768956258028026,0.049593193528522095,0.05194574072233437,0.05768762493391411,0.11584189129730993,0.07462407619253779,0.12702583121161062,12.337402510357396,0.8721078854121074,0.36904661837824915,0.23823043556643306
3,rest,14,28,2,0.20358434431919195,0.22084743217512812,0.06358989818914282,0.0661606584635417,0.05996156091680377,0.07498151053799719,0.09158842814529655,0.053522587864846025,0.042709353735603015,0.043475458759951596,0.05022309486214951,0.04709363481664553,0.04333065438939124,0.061088508700978074,0.08142721844252476,12.221065958308957,0.8631589198699198,0.5268891086834047,0.3974152707029167
3,rest,16,32,2,0.6449811435165966,0.0687433868776924,0.08285711863515702,0.0694020640626662,0.09542654242175924,0.02548506712321518,0.045619892584445536,0.08695065193085903,0.06096888217726531,0.07121018896823385,0.07300197224869874,0.08541233712637344,0.07116249958091615,0.09854753071972422,0.06521186554299373,13.475423229848241,0.959647940757557,0.6112793149325786,0.46733212381894507
3,rest,18,36,2,0.9912067788924456,0.030360420953994514,0.028940351934616533,0.10671184514604366,0.02230195671969954,0.023041465553664715,0.011883852479013472,0.03431717550315418,0.060610677089298945,0.07501110909672001,0.0714271884418603,0.14829610139195049,0.1152679665680588,0.2022816873784083,0.06954820174351657,10.814819637580877,0.7549861259677597,0.748475182442182,0.6352272635470181
3,rest,20,40,2,0.9795458869238228,0.04172178577617697,0.05266749047985177,0.07107731038747662,0.03306403783649791,0.1978768445874663,0.012533228004729516,0.08529589396470753,0.13371215627740846,0.03754408317286542,0.025846289171524515,0.09662110950171991,0.04142387180250036,0.10432646675024032,0.06628943228683443,11.402136794507012,0.8001643688082317,0.736817797506222,0.6167931421849873
3,rest,22,44,2,0.9719575051097962,0.01979135685605373,0.059186331804786926,0.052755833327304096,0.045034656996233734,0.07637405846899785,0.09049911475939043,0.06617609944330963,0.09695926381270774,0.0761722173296112,0.060206020200667607,0.0825386798208292,0.038546560500381556,0.20578304393671928,0.02997676274300705,12.022284931719563,0.8478680716707356,0.6362348388649814,0.5090546281143711
3,rest,24,48,2,0.9439528943908557,0.029668409306590524,0.04733239740571888,0.03125609496133707,0.06514243997372839,0.05811157696912615,0.06024866156106427,0.09578932953656627,0.07864495480655606,0.06591032175554636,0.06459129728612599,0.11047264006785716,0.06327030549144716,0.19448128051682653,0.03508029036150914,12.23676361422332,0.8643664318633323,0.6269644167968753,0.4973094520173755
3,rest,26,52,2,0.9680481788571288,0.011460463853028856,0.05641650289285458,0.06037139029915004,0.03701288710388383,0.029398720227562087,0.015599013356811261,0.028834786512794634,0.04542979709181029,0.08519111018264512,0.08865822225379436,0.13579143830923088,0.0542480921640236,0.3004394281098242,0.05114814764258631,9.80977854866554,0.6776752729742722,0.7138051514992597,0.6121538605531189
3,rest,28,56,2,0.6213156394652118,0.06865394006084478,0.05620061882890001,0.11075642510336568,0.051264668874248014,0.08183965123144489,0.04953402168284531,0.055129890284578334,0.16227582328512832,0.058278773497468,0.03553321323607423,0.04904022420210941,0.05955967185430028,0.09193877638620038,0.0699943014724924,12.883295693408714,0.9140996687237473,0.5628589890018065,0.42574403869324445
3,rest,30,60,2,0.8447658091157374,0.06812456100425336,0.04276941183158247,0.07937651743684754,0.018549471772770675,0.017742991396339856,0.05003465878570659,0.032143247285300075,0.1821483825112411,0.10723966391540317,0.08168569634747325,0.067250859437031,0.0883411539377145,0.06511089653253145,0.09948248780580489,11.969265291229993,0.8437896377869225,0.7107773274028437,0.5842088817348053
3,rest,32,64,2,0.6180394685507253,0.12222403085485703,0.13149540163811518,0.15688810903698938,0.13323590328389376,0.027615793851542805,0.033921445812757745,0.028586088889795257,0.025549978774404625,0.022199828984083677,0.028125818526762374,0.04799230196819422,0.0743595061451644,0.08217406752309216,0.08563172471034756,11.379364002987963,0.7984126156144586,0.5969302363347746,0.4771683439926058
3,rest,34,68,2,0.8125277790929434,0.08603450834701756,0.18540441000592542,0.09644014009557751,0.11435875224908586,0.035441453992875765,0.04665262267748158,0.020881425033409923,0.03147984542414788,0.025608258088800896,0.021108753231362482,0.060483040898360124,0.06657374980126762,0.11331418022222513,0.09621885993246218,11.53519081028211,0.8103992930986238,0.8422237020584535,0.7206638080936599
3,rest,36,72,2,0.325939279949318,0.10232166494908795,0.04586541711243176,0.04971978510026003,0.03659929141719665,0.07107274292726204,0.10088451778071261,0.1901924532783635,0.05852875417469056,0.04487094119803779,0.030455224118747317,0.06624783672801185,0.030537415924292405,0.10737563252302386,0.06532832276788175,12.131703319926402,0.8562848707635694,0.6402908708712153,0.5118481402566799
3,rest,38,76,2,0.2932886759215098,0.046617883861414786,0.06955923579781265,0.12117777550628789,0.10228465180397765,0.057869764264729694,0.06945115597034934,0.0933226861222833,0.04746795501483119,0.052899577273907476,0.07233621136385063,0.0726794859872653,0.06631682149864825,0.06542121241329044,0.06259558312135124,13.480458034008564,0.9600352333852741,0.39823700975799003,0.25423172475019895
3,rest,40,80,2,0.10475645122503614,0.1381327104031284,0.0608469721055299,0.06164298400216685,0.05016272694631717,0.025401692523769684,0.05559199440447773,0.15576412100055928,0.09168171674057829,0.07053197121060617,0.07204685086226835,0.0670122470500525,0.0759306554158226,0.02757241617623393,0.047680941158489115,12.501096531713172,0.8846997332087055,0.6053906511247672,0.4726856911434614
3,rest,42,84,2,0.31575750011524883,0.05930236797989719,0.04618284409418228,0.13023097384263888,0.0665594178168752,0.053859631939202686,0.031154257418991794,0.07996340808467889,0.1115517557435916,0.06801748800117546,0.07883788173431508,0.06768119100580984,0.06493313145105908,0.053687145378530254,0.0880385055090519,13.214573774994859,0.9395825980765277,0.6227175719041023,0.4817801821926231
3,rest,44,88,2,0.34502150113724545,0.04097005328939974,0.042768370584954786,0.03423867832921245,0.03471773884684493,0.15732041205090172,0.1046367760013431,0.04997152750998295,0.06682289273771341,0.10644192213243261,0.12176296387284233,0.06382171792024245,0.06705863242695424,0.054079292695006005,0.0553890216021691,12.494354051417218,0.8841810808782475,0.4485558521765408,0.31592869004480373
3,rest,46,92,2,0.07157052241527925,0.034761804550539815,0.040577432773372904,0.05548701342178954,0.07694368634734557,0.05231653350000119,0.11160597164938589,0.08064732503793366,0.13086419390683032,0.10099093431340779,0.09064931549208435,0.07921261995568388,0.05362402355518158,0.06525089692358961,0.027068248572853865,12.878497116165798,0.9137305473973691,0.3328676174158097,0.19580803530620436
3,rest,48,96,2,0.2843670748875249,0.04180523354729546,0.04243088344056024,0.053834344953152286,0.04911209248272979,0.11249785750801983,0.05196747484401893,0.037487626190082037,0.03602959815023127,0.0940167432290248,0.1235706816182525,0.08908323834452708,0.11766855913668392,0.08036708818329721,0.07012857837212476,12.823247427912385,0.9094805713778757,0.4726241593385644,0.33620207363188304
3,rest,50,100,2,0.07852679404284221,0.04114270548386335,0.05414503632658431,0.04473809397628627,0.07054350891930597,0.13883060507011685,0.07223939171656285,0.12789078037351898,0.05276751436071201,0.0554992004689565,0.06018762503518843,0.07104365576825535,0.07050704316289595,0.08744514481568214,0.05301969452207094,13.074882929198159,0.9288371483998584,0.4576476345350041,0.31832206227502535
3,rest,52,104,2,0.053445485188022786,0.0857665820753397,0.08256998939191665,0.0848187239956394,0.09381749308337822,0.09564897379631677,0.12107924098636658,0.10064707791195562,0.09018800209903495,0.05518085325306824,0.050891250758685794,0.04134480864740625,0.03475288177272723,0.0144197174717692,0.0488744047563954,12.738481622232532,0.9029601247871178,0.5610682429955096,0.42562422427744195
3,rest,54,108,2,0.05300424976620149,0.045101899541984354,0.05486306771936135,0.04854205723133371,0.04941374272243011,0.05234334890553808,0.024737386391907312,0.047385202753276914,0.16848114481422255,0.13878659157344125,0.09819483753214586,0.08185389086335534,0.06708897343966476,0.054456881436757955,0.06875097507458022,12.37420817619878,0.8749390904768292,0.4341906847276358,0.3029498211561114
3,rest,56,112,2,0.07459153106074856,0.04426535192161042,0.03481851605060442,0.04504553001087001,0.09074678839315684,0.11866996748867094,0.09527162140631407,0.11911931561258271,0.06001680086538625,0.08329835242145296,0.1028139885064287,0.06904190961089043,0.061418572623449,0.04164268254124491,0.033830602547338426,12.874680118501667,0.9134369321924359,0.5354377981452648,0.39842225831639944
3,rest,58,116,2,0.052148937253002646,0.09798284466720587,0.10513766790237324,0.12358376238129645,0.09157014437733793,0.09923470018534093,0.0454082907034587,0.08811461184967159,0.025085064049770456,0.027424758993885155,0.0424518833142065,0.03908406591765267,0.058382721856611135,0.05366051302073054,0.10287897078045885,12.605492591770401,0.892730199366954,0.3105520765203386,0.17664254661529552
3,rest,60,120,2,0.11369226602262016,0.0791396821877626,0.08060422984670843,0.07152066458986565,0.08314233820289386,0.08175402673599413,0.029165909284318024,0.05436839234672968,0.08783523250960043,0.08041603920868783,0.09376915107579495,0.08049804274914514,0.0801692314328208,0.04231958369333787,0.05529747613634078,13.499169644008916,0.9614745880006859,0.3715624169784634,0.2273412287783605
3,rest,62,124,2,0.20213212298449276,0.02828537298336275,0.020427194876950442,0.013734238701756234,0.0148566034398424,0.027568441462249092,0.04925434542121251,0.04449718560630218,0.07831410507586357,0.11725542567714416,0.24390896700904025,0.14729012655531887,0.08650546978515145,0.0947402700419162,0.03336225336388999,10.104955243597312,0.7003811725844086,0.5044907393287612,0.3994335634410999
3,rest,64,128,2,0.13287512007560495,0.02113644645152113,0.034278286510442194,0.06993555789105717,0.032450802346387156,0.0957158953153564,0.06974063068226809,0.14252712401967518,0.17431788624833108,0.07881392393406719,0.06063509454050063,0.0714003137826807,0.059808592540760055,0.052690254340585566,0.03654919139636725,12.061955279341491,0.8509196368724224,0.476314198145813,0.3486762526149496
3,rest,66,132,2,0.24732678228513547,0.05851296965912074,0.054073829477317537,0.07480450453184308,0.05917425131545248,0.10789004826493921,0.07557448780824343,0.05296562983177114,0.0741873472354194,0.059774412432709645,0.0762649254939366,0.06654141535947515,0.10920508820049955,0.050550596021178645,0.08048049436809332,13.59375123622591,0.9687500950943007,0.42371164177281423,0.27839912750866913
3,rest,68,136,2,0.12663937840683273,0.046545993905714476,0.05819212186954648,0.08687371779546663,0.20449159268720496,0.03371876054653092,0.025545501340506892,0.045975299765583254,0.05429030164976378,0.05314071375704279,0.09676721799249097,0.09406270892378991,0.0916478052167871,0.05828376875735453,0.0504644957922172,12.091916973559009,0.8532243825814623,0.5322249111076596,0.40424125372044023
3,rest,70,140,2,0.09619088778395375,0.1250741050615107,0.0765922704509161,0.05499337609760418,0.04794823381380831,0.1294223167139614,0.17527577040660894,0.06269123259584616,0.03987221403257335,0.04269639343465804,0.046316050936423346,0.0533959731495514,0.05667478449038755,0.04598739679714335,0.04305988201900702,12.268348967552868,0.8667960744271437,0.3225416952180254,0.19252228405395386
3,rest,72,144,2,0.1930656080438323,0.07664776786578786,0.05193790874954375,0.0822195678940224,0.07504623617079545,0.04049971744400125,0.09097114605412607,0.06401173350091106,0.05011262881044898,0.06878044198888335,0.09553152739013329,0.10601426953644998,0.06927517371752302,0.08106060149902979,0.047891279378343796,13.52655776434293,0.9635813664879177,0.49809557255900666,0.35355836758581904
3,high,0,0,2,0.9531513297297132,0.059899954651385,0.04607672902401073,0.09571165974588629,0.042646124631149376,0.07499628388643415,0.04833580834499881,0.10742321488781437,0.21613583989945084,0.05794497613688264,0.04865419233652502,0.07440105993635765,0.07382737520595539,0.02902117491101767,0.024925606402132167,11.864783710267096,0.835752593097469,0.721461334845715,0.5960984458810946
3,high,2,4,2,0.9674928332767911,0.08302994967088947,0.04679991849511098,0.09193041006801764,0.032881359725849164,0.050486182520270956,0.020165434178563497,0.024185651686736653,0.08782083854331664,0.04784180841997875,0.06203243555723331,0.10766770356327746,0.10968753070699294,0.12166636232473388,0.11380441453902858,12.411435595141256,0.877802738087789,0.5483938013757701,0.4167233906626018
3,high,4,8,2,0.9727298580932355,0.0715979501583998,0.05642113305857099,0.11950278014712615,0.05214535974888513,0.029420924486809143,0.016087247599207828,0.013171045125439191,0.07498272193351334,0.06486060569124527,0.10794134240638287,0.19043055865527847,0.05718546805343757,0.08696215566011752,0.05929070727558688,11.674517607457407,0.8211167390351851,0.6431999919620068,0.5200324811067291
3,high,6,12,2,0.9362633970179828,0.08905320800850315,0.07815951008142806,0.08544092407983189,0.044151822213223786,0.06450054883583113,0.015476574148909648,0.06584858993806288,0.07500789805341716,0.02595814069129467,0.06357065932315242,0.1043291747087937,0.09225982932860903,0.14477556307005512,0.051467557518887354,12.621321840881306,0.8939478339139466,0.7877993064855,0.653707131398408
3,high,8,16,2,0.8928253147187374,0.06557259263524938,0.06788351183955277,0.049871193882800355,0.036451762807358595,0.0792046438264086,0.02748439937376687,0.1977049911951611,0.10355768267240568,0.06395411866693246,0.07500496345403561,0.06389087132455368,0.04749249550357721,0.08127809558082097,0.04064867723737661,12.31982124562731,0.87075548043287,0.8206723287018155,0.690059006636885
3,high,10,20,2,0.97774351799666,0.061851356683864926,0.09000777122888184,0.04651153539863215,0.04282198175571956,0.0924149613934354,0.03926210169366999,0.027514159024650937,0.09506675865340683,0.08545939390390557,0.13716441738463425,0.09322493711027541,0.048725141498214115,0.11376205618686955,0.026213428083839616,12.554679515703503,0.8888215012079618,0.7275012911669838,0.5941780659857896
3,high,12,24,2,0.8203597244618619,0.02316661492653169,0.04273736800747777,0.014877825062370445,0.03199165289482642,0.05193384442162115,0.03342809566896504,0.044516792571378964,0.03515582827036078,0.02778926199052883,0.036017049826034125,0.5733101188697876,0.026240187512513034,0.045975993893124865,0.01285936608447931,5.751522910990993,0.36550176238392257,0.5037779388141058,0.44895267445651743
3,high,14,28,2,0.10767302982126055,0.08986717043895391,0.05464285964657948,0.07025621961905815,0.03452406599149064,0.08761726424688189,0.027449043324680962,0.04934711781369273,0.04698978798990836,0.06686531992504366,0.11793950124062766,0.09870632013276438,0.1065909070244387,0.11100931508595346,0.03819510751992591,12.823011389067606,0.909462414543662,0.3081988302857593,0.17177946810421
3,high,16,32,2,0.9580109836453263,0.01577673235726033,0.08146442142296383,0.012147097211744493,0.03239655692228026,0.03332524697004969,0.012285756405104547,0.0203691828403525,0.13226032410163727,0.11268747632195203,0.15890129021694505,0.14271244601974986,0.03622489599653733,0.1841084386290103,0.025340134584412647,9.872396300530706,0.6824920231177466,0.6555323924575934,0.5531585889899314
3,high,18,36,2,0.8278800612129374,0.047742741011806845,0.17565975533887898,0.04377807194926762,0.12340281986543282,0.03187604428867422,0.033857274070804216,0.04790224153065286,0.048800359099617795,0.03906724389160566,0.0937820202581894,0.09773670369503357,0.04323302153684531,0.1469135484504149,0.026248155012775862,11.615476033843457,0.8165750795264197,0.6808993186724075,0.5584130567434445
3,high,20,40,2,0.7904201608888661,0.07637076005297029,0.05781738734011327,0.07992281227530496,0.031716391686608204,0.030726355402797965,0.022379015619056836,0.035645306659104606,0.050973458092502755,0.057320258456423336,0.12960234359262762,0.14287561614029998,0.10466925364757368,0.13796224682607944,0.04201879420853695,11.996747281202923,0.8459036370156094,0.7144929710089949,0.5876074254566535
3,high,22,44,2,0.07733524906741339,0.05714223207588969,0.04295342812109873,0.06751407303717642,0.09971115808181749,0.1394569270394725,0.05537106044142414,0.04302684101498855,0.10866594962699704,0.08739999558227304,0.05425505566368187,0.0613234560765613,0.07073822077873004,0.04607808637159378,0.0663635160882953,13.113102135133671,0.9317770873179747,0.562107984796784,0.42234142169908784
3,high,24,48,2,0.8433252984489473,0.03775253335548366,0.057756760098006406,0.023931256281372437,0.036767011851720016,0.10070118089901742,0.04391437295045942,0.03369516486147267,0.12355462678012909,0.08680547060932366,0.08408274241690596,0.08007764636522892,0.042614324286307084,0.1902634922569774,0.058083416987595934,11.919805753197224,0.839985057938248,0.5628015907389224,0.4368038320481853
3,high,26,52,2,0.8107695742469937,0.046465393759415094,0.05238244296418292,0.035453776565025526,0.023926278418582084,0.040944013460861864,0.025541317976617062,0.04401995249316961,0.06059317793750542,0.05731532013557499,0.12326929379487576,0.17207045328692933,0.0550868553843256,0.21515562779856276,0.04777609602437229,10.98972619596662,0.7684404766128169,0.55964874262761,0.44438267113568747
3,high,28,56,2,0.9367341520579485,0.11235726009523841,0.13578923949786142,0.11787470831373861,0.03933515936185467,0.05232827713280962,0.024178153713452354,0.030429803573921554,0.062477700061526205,0.0334997445475056,0.04471673553780424,0.0983269462182369,0.07286787352599365,0.11546895188780469,0.06034944653225211,12.308539061554205,0.8698876201195542,0.7471108146073323,0.6166276715893992
3,high,30,60,2,0.6435625168469645,0.031552399637480376,0.10586319525200684,0.03878714467686884,0.08395859734155396,0.175120932064407,0.06517450283978289,0.11282281404096184,0.045439387084176976,0.027667645052265818,0.02709673393146118,0.05854408665657255,0.045560758674752136,0.13056024662120574,0.05185155612650405,11.86634432174541,0.8358726401342623,0.6982248609800945,0.5728439649599552
3,high,32,64,2,0.9148522977150905,0.12066606565974897,0.11982884198930807,0.15941677760765882,0.08034050283976402,0.03766163412615794,0.011078089487287614,0.03762449788258901,0.05794742862479649,0.02778601622445664,0.042803359075879226,0.08576058275373954,0.08037320915690957,0.09672740836663253,0.041985586205071534,11.861828669378404,0.8355252822598772,0.6183579516872637,0.4930291593482821
3,high,34,68,2,0.8766644222830718,0.10523595773263217,0.17308207277822338,0.0499306969137708,0.06268705502398964,0.06913684749322345,0.040902973327924516,0.03377704070071002,0.07391997523850154,0.047728140052586965,0.06297366490774949,0.08064106668955849,0.07695411978610935,0.08106064487867601,0.04196974447634428,12.713857873827141,0.9010659902943955,0.48988636398410423,0.3547264654399449
3,high,36,72,2,0.8748399726738096,0.054025829908458486,0.06678335113634531,0.07615022004742361,0.03864225549518208,0.05300100560453439,0.04993736898979697,0.0351330930468446,0.04928351997367857,0.04374465315158986,0.0342149277692356,0.13857778685669842,0.07397101603241275,0.1895931101378754,0.09694186184992394,12.084544327638461,0.8526572559721893,0.7543665133012217,0.6264679249053933
3,high,38,76,2,0.954842099346675,0.051626393500349685,0.08041170769526321,0.08757436721943042,0.05175357566978024,0.02252446991837803,0.015275384238448467,0.05269245449680657,0.06225133561861603,0.05793558517744563,0.09529223170715485,0.06744805320395134,0.04837843266929668,0.26650383185813464,0.040332177026944194,11.009930390492539,0.769994645422503,0.6842940183145044,0.568794821501129
3,high,40,80,2,0.3425221748564641,0.09889905116929587,0.1636900844859097,0.06413998043116112,0.08754914722513639,0.08470005358433538,0.018032030473588322,0.02965532755832366,0.10064096396824664,0.10456235973941785,0.09101191223441464,0.05364529507727243,0.04413437991523279,0.03583938226005201,0.023500031877613105,12.033793696812936,0.8487533612933027,0.4285773771977026,0.30126437300370723
3,high,42,84,2,0.9515156701203571,0.036246856028450854,0.06456183086791752,0.04225898701958935,0.0359432347784165,0.07861516083910525,0.06142194673620881,0.022166881897635004,0.23278245396413513,0.07825278725234658,0.04905130204525878,0.07978318190975218,0.061223295968474194,0.11247442892575944,0.0452176517669502,11.602404941190779,0.8155696108608291,0.7836125727615983,0.661277131132474
3,high,44,88,2,0.9616496342714603,0.027808702776738574,0.09655071278680333,0.03232882166134096,0.04688837098920781,0.061258613784659334,0.04779816837937472,0.04911449106779731,0.07992221192182733,0.10950503509852542,0.17595316409548656,0.07668276753411571,0.04130853028550373,0.12087889847865417,0.03400151113996501,12.097449749403815,0.8536499807233704,0.6429187118059015,0.5148712146973959
3,high,46,92,2,0.8335475992494701,0.04451807058754785,0.07866646341995892,0.039379657279056346,0.0520300752868402,0.061942354972297595,0.027694919639098897,0.059567480410346096,0.1007301109195407,0.06855145625449804,0.11159443615694069,0.06450835961377498,0.1248124722305979,0.12848461612412104,0.03751952710538071,12.709744870105235,0.9007496053927103,0.5634869266411824,0.42837448583227583
3,high,48,96,2,0.9720409141183605,0.03556062020900048,0.05547648437319495,0.049201818002395134,0.03984606263006883,0.09313438819781286,0.0213321168431286,0.012506039848765717,0.07134153156758277,0.05780863874047407,0.08927523657532428,0.08895335331567984,0.05776422788132617,0.2727900072960493,0.05500947451919697,10.765199095704444,0.7511691612080342,0.6941294493805266,0.5814540751993215
3,high,50,100,2,0.9687852693045956,0.03801970214601428,0.07062563698678911,0.08629762801075652,0.0592791236581317,0.03586369565369855,0.025454780436210456,0.04380913073642272,0.13960537372075155,0.0871442181909187,0.18296415132720906,0.059782411923851926,0.06655113947169898,0.06558391762526436,0.03901909011228224,12.091644399668615,0.8532034153591243,0.7670268722938353,0.6390463599899666
3,high,52,104,2,0.8389358619726445,0.04305243461739868,0.1758818018892106,0.0649528045479573,0.06269716575102446,0.12032438833716544,0.07500411335995734,0.07429962774660999,0.08656830440678075,0.04546413388797972,0.06565775178465963,0.06294473139611668,0.03881125223515461,0.06691445083760916,0.017427039202375927,12.39615588172648,0.8766273755174215,0.676692313278407,0.5451982069507937
3,high,54,108,2,0.8915613321703326,0.048192154195767875,0.055968061117276424,0.02951631188094901,0.029654315355996698,0.022367422670069526,0.03383746015051663,0.05315298241808781,0.13465782487503286,0.07913500049534877,0.09517763487645753,0.10085267158099695,0.046754948694469306,0.20342334451614114,0.06730986717288952,11.543231216591451,0.8110177858916501,0.7422354965374893,0.6205828286537418
3,high,56,112,2,0.8651288388556035,0.10051931367488527,0.08852652801365223,0.059232543041688936,0.10466088787654486,0.10268763026373218,0.1396502125811029,0.08686146030960706,0.07450055121128445,0.051664654525322366,0.10566384082812162,0.028994348208602923,0.01916857037717721,0.021300277482676735,0.016569181605601332,11.971062025598235,0.8439278481229411,0.7922200244949661,0.6656308472765249
3,high,58,116,2,0.8804006231237561,0.02602851284733255,0.09464242192017289,0.010363184073448502,0.05824021859538395,0.04021620278259443,0.03603268780070864,0.07062120582700528,0.16919148440018122,0.0770257735895085,0.07853229702461562,0.08343796012661851,0.023301055248354005,0.22046578775360906,0.011901208010466766,10.443562200605303,0.7264278615850233,0.7203319106345077,0.6113677313967543
3,high,60,120,2,0.71500211421088,0.0674247390436333,0.03650026094993666,0.04735452610882312,0.02875236604244237,0.06388783875954637,0.05856278945566643,0.07700304526706986,0.14247170628911038,0.05931815220662689,0.07345667112303485,0.0911745317115796,0.09113396690354829,0.1290006249816,0.033958781157381865,12.694713726060069,0.8995933635430823,0.7779930686141838,0.6430540640827215
3,high,62,124,2,0.945677810858163,0.031643190061049944,0.04251136316118454,0.04233897767094945,0.026068559870463533,0.08100760648952066,0.03731191942533703,0.0766204306782186,0.156488505194813,0.06723764302744922,0.08045051004108282,0.10883415465816285,0.08485247451788169,0.11565957468057955,0.04897509052330717,12.403986976223173,0.8772297674017826,0.6645429873229929,0.5329585222127255
3,high,64,128,2,0.9033509043429003,0.05876881584601296,0.05037760948660718,0.06467061211176753,0.04112976778350475,0.19680323574377273,0.013417211072872396,0.016829535360041906,0.011908692805425527,0.01468396731287588,0.030660915011440755,0.0988975979420393,0.1674047926957997,0.17544024475647407,0.05900700207136518,9.91350299467559,0.6856540765135068,0.5319019082878269,0.4290537968108009
3,high,66,132,2,0.7840341398589936,0.0969558068829399,0.05880301230670358,0.12019585999594258,0.06070617774072689,0.03327590284942022,0.03767867664551482,0.05085660632347785,0.07631156313501145,0.04043984298947441,0.05977967846672865,0.09999863307605196,0.11017511732830368,0.09228265225945369,0.0625404700002502,13.024924429725253,0.9249941869019426,0.5100108574005157,0.3712617293652243
3,high,68,136,2,0.9653231702216741,0.054455540692637604,0.12233420788450552,0.04784961640516657,0.05167787327834053,0.049063623450760374,0.031642441592894525,0.03891103389280318,0.07193952516425849,0.041851375428095666,0.05236177762363358,0.11651170746019282,0.06200848412746287,0.17619237869351587,0.08320041430573247,12.30294965738567,0.8694576659527438,0.6551763094036558,0.5247576595107443
3,high,70,140,2,0.6760907982465487,0.0641923868952151,0.06484041711731009,0.037420506322335234,0.0402742062080234,0.07197816055027188,0.010096477088137963,0.017340194831551983,0.033301646266151064,0.02683215894498078,0.07253904201427631,0.16869863009230646,0.17654281620637183,0.14908940248834057,0.06685395497472711,10.845596630578171,0.7573535869675516,0.4625522397832168,0.3489492017380841
3,high,72,144,2,0.9350357594369791,0.03797595308232272,0.10558089271827845,0.02276228744173343,0.04028884237205395,0.03800808515839927,0.04910572387865912,0.06951428597579441,0.17611182456781527,0.06391151399022313,0.1145880640286024,0.07517900733126945,0.035038689918254054,0.12439693079248954,0.04753789874410488,11.9488105311461,0.8422161947035461,0.7826853650396884,0.6563529358341565
4,rest,0,0,1,0.4588063488277695,0.10302664587142188,0.0797420398863767,0.11562802532404157,0.04710538312702565,0.01449406226469598,0.05450113813484877,0.07359488040084886,0.07631047832492659,0.025723409310787784,0.04951059632892011,0.05719471966730436,0.055831844144218,0.08411273598675821,0.16322404122782558,12.296450574473099,0.8689577364979306,0.6467174385790031,0.5163737781043135
4,rest,2,4,1,0.3982994967949187,0.050093781931901435,0.07114080538714593,0.07418610106669761,0.030693957098631267,0.05504727567809961,0.06317940640803288,0.04216028414771643,0.11546253507592631,0.04296199457744659,0.16064056985734562,0.08240390797295905,0.05397865167356786,0.07604386610781044,0.082006863016719,12.781573615973944,0.9062748935364572,0.6393897773761222,0.5034485433456537
4,rest,4,8,1,0.19104369175233119,0.1345942464772086,0.05244947459065153,0.0692161043297562,0.07449168565304772,0.15712698455734492,0.07555423750795526,0.07203590289744066,0.06712625373520606,0.01820160061825493,0.04655232482464762,0.0395239239202768,0.040231715994667946,0.11297022675177931,0.039925318141762714,12.27067765630131,0.8669752043308699,0.5461688260570248,0.4161225454073943
4,rest,6,12,1,0.3644730493124626,0.12336304034236441,0.1341877175218738,0.0471942880684696,0.047900433653356736,0.0774551954500186,0.03519760643482625,0.02023512522949326,0.0412525689903899,0.049744651156368135,0.07631169142806181,0.1060047547640677,0.04652620563055022,0.1338061329527301,0.06082058837742939,12.297249827431006,0.8690192174946928,0.5224018657050638,0.39204898308085984
4,rest,8,16,1,0.27908474803616895,0.22424591874256547,0.0923442578594932,0.049836052143552786,0.024371104952626357,0.06551020407979169,0.055983154414203415,0.06212870188097008,0.0803239804407515,0.08397071264222754,0.0474868528383479,0.056956594439993645,0.045996349694057505,0.06307954328645198,0.0477665725849669,12.031001787570164,0.8485385990438588,0.5448688251481028,0.41758803529152394
4,rest,10,20,1,0.6526075867305193,0.04258011906535799,0.06341626611380878,0.12039886317058077,0.06814704091139935,0.053311583506295265,0.09102004999011136,0.10231536349549518,0.08381098188536835,0.019936611998773363,0.0932908542949117,0.05084128435820075,0.1050293305937216,0.038412751573071696,0.0674888990429038,12.901202062212391,0.9154770817086455,0.45696849806457146,0.31964693580827463
4,rest,12,24,1,0.39813557743619354,0.04531710682941685,0.16120281383210328,0.048482960130319545,0.09472407240070171,0.05887642739100426,0.06160401974121805,0.06954232965842351,0.07602892859149099,0.03225393436374074,0.0477180786050213,0.058899223857052596,0.055339885612622305,0.04271189552368017,0.14729832346320446,12.476562093068475,0.882812468697575,0.46833680408786277,0.3359149337832265
4,rest,14,28,1,0.26538532709066553,0.04897612940440571,0.04316361214781681,0.07448136339961677,0.06323373838991704,0.07774635681031285,0.09161946979741595,0.18953312141352682,0.09383027580639751,0.028312307640271196,0.052989871636922925,0.04323757255827659,0.09104221572061584,0.05562246947641792,0.04621149579808591,12.423511783689444,0.8787316756684187,0.46818087284573545,0.33637112149547266
4,rest,16,32,1,0.603826896296656,0.032987064318255266,0.04215313776297774,0.10022322550586724,0.02826769694490995,0.060699746087853765,0.04888446471256565,0.08292986317647781,0.11643231692014543,0.025455088249136688,0.22840393667903786,0.06811213451459396,0.058932360293992646,0.043278779454161476,0.06324018538002463,11.506327200131167,0.8081790153947052,0.5547497726476428,0.43352292033843703
4,rest,18,36,1,0.07365988609385585,0.1719072768094581,0.041097080243747384,0.06048725191544176,0.05604546973373102,0.09983534715758526,0.09624177665767292,0.09332379766942862,0.11946739800997926,0.04949034212927886,0.044773704059740176,0.03738777575393929,0.06761407234713188,0.03971338301579897,0.02261532449706638,12.209677119471776,0.8622828553439827,0.5108878377392563,0.3815454094376589
4,rest,20,40,1,0.3503368093986722,0.11639647554078261,0.05941824835015665,0.05024282654177579,0.05533963537932865,0.054478621008560844,0.07652820583140871,0.04605558562979697,0.0701461421003638,0.07750210725376286,0.053132947629677726,0.06881122739694005,0.09541344075353697,0.07190140762962009,0.10463312895428833,13.461640885570636,0.9585877604285105,0.43640145694651017,0.2926132928822336
4,rest,22,44,1,0.28957527575822506,0.030818856213671027,0.02671443767811967,0.01669383225491968,0.08348911141784209,0.06269339840465528,0.07211703385694387,0.08774279968083681,0.14458393978348544,0.07713395474628412,0.09373384520759535,0.05810455594843797,0.08962375549062347,0.12906759605979082,0.02748288325679457,12.183771899002462,0.8602901460771124,0.6245538489606459,0.49551032704907905
4,rest,24,48,1,0.22983165542703365,0.06545215625186748,0.07006496629676867,0.033242253494968,0.07720048658309574,0.2343764041884139,0.1172147694298229,0.06895372507743533,0.06371053167198902,0.05737462695712026,0.06207008038519778,0.04106660751087001,0.056928058489930274,0.03526670787321381,0.017078625789306807,11.530345030246792,0.8100265407882148,0.5762034815809425,0.45469950046271024
4,rest,26,52,1,0.2166832575896173,0.06150752833160357,0.048929727991599434,0.0829120166746165,0.08346886526668637,0.07947352732945472,0.05221163561274734,0.06151180562884437,0.09117820376370052,0.14496855536371972,0.044475658188084306,0.05514862488899766,0.09449005483411539,0.06326523863429552,0.03645855749153472,13.127414656284776,0.9328780504834443,0.5692459156693385,0.42931420809682186
4,rest,28,56,1,0.5828958676526894,0.2328526905621184,0.09846701866373428,0.11912545786086297,0.08672826891410851,0.049421006210427325,0.046263652045148686,0.0355555461177125,0.034369155068877645,0.04825426579781726,0.04900166358760964,0.0687451236697371,0.06409768015048513,0.037917232490519495,0.029201238860840886,11.471456717730728,0.8054966705946713,0.5171771487085104,0.3963526481193097
4,rest,30,60,1,0.4769708370424632,0.11382549963549915,0.0307166409822257,0.051680884827797445,0.03077509046396619,0.04555380963578147,0.10816957764008556,0.0413379096913019,0.031232653076386722,0.024926409798752987,0.1326003876619491,0.12156261768081948,0.022448702679112663,0.133859857342967,0.11130995888335472,11.596690694000607,0.815130053384662,0.47512803649312546,0.35285852848542615
4,rest,32,64,1,0.5571577378296704,0.023416076327968587,0.05307051322228658,0.04167690821327991,0.2380486720301193,0.14408719887460067,0.08634484869765839,0.05141810857153872,0.062157910718769076,0.0367916489596495,0.1294760771824542,0.04090329253428763,0.035582660280660566,0.019111827226536184,0.03791425716019088,10.68775263035037,0.7452117407961824,0.5945267515661519,0.48274499044672453
4,rest,34,68,1,0.2537633531999334,0.057044191623162356,0.05911288362612719,0.04965293475396337,0.049940534161471345,0.04026460605626023,0.06342854403703937,0.1191681492567452,0.09756127523313117,0.07959057058466673,0.13346805089253544,0.06339763106192146,0.05997901533429419,0.062494227040761956,0.06489738633791999,13.180849437092089,0.936988418237853,0.5047262305525589,0.364177967816881
4,rest,36,72,1,0.22106588519536588,0.0379208249303632,0.04075801878590398,0.05132695196088058,0.156013889354846,0.0935419209134625,0.03393360241098341,0.05703147133783265,0.05185001562302775,0.09422118367689626,0.12712411260285994,0.04761200494090724,0.04427343177558925,0.12997945083861215,0.03441312084783507,12.16926730951834,0.8591744084244877,0.4496522155170942,0.32077605425342104
4,rest,38,76,1,0.10831916193893713,0.021525875849805216,0.0366761799716134,0.04524994545874376,0.433218325432904,0.08239206203473103,0.05790903333834626,0.013277088779964063,0.015006627109786657,0.048442634325910366,0.10449553918692918,0.04177804513466355,0.04408291447786782,0.03502941676138075,0.020916312137353885,7.7571199184271205,0.5197784552636247,0.3057721609918451,0.22780539270230143
4,rest,40,80,1,0.05335398451907927,0.11912915056203274,0.0806306245704239,0.05173299022040918,0.26819536135109456,0.11318129465016484,0.08596057929328448,0.021901921479160057,0.04271231752326956,0.02633487427041726,0.03585405744035779,0.03275938694346587,0.051062772369180526,0.035514177588195014,0.035030491738544264,10.522224574975406,0.7324788134596466,0.36845755983354406,0.25858573781459704
4,rest,42,84,1,0.11668910633946303,0.06091095049460792,0.04985752732042783,0.07893202360888449,0.06030763804017309,0.05450108582099001,0.032407176742974615,0.03801577589718279,0.058644731180129535,0.04816441951014701,0.09254501547605862,0.0932704039965031,0.1657721382241983,0.06780258492634747,0.09886852876137527,12.766855485146916,0.9051427296266858,0.38530573417687464,0.24953432473287177
4,rest,44,88,1,0.2657864764558092,0.030297237159281204,0.04509804983950283,0.09121491979017049,0.16268602592636697,0.039939590790435,0.06867008038689684,0.05857231956283687,0.07775300427693427,0.031231617526873555,0.18803001920262868,0.06367536363951284,0.04389826008099536,0.042529371343379696,0.0564041404741853,11.803724886977697,0.8310557605367459,0.5132719246616311,0.3886135605811192
4,rest,46,92,1,0.19447530370494667,0.03515967004111829,0.136075313147719,0.07159771523013743,0.058635565558339466,0.05502609741297187,0.04817954276863169,0.026235081757594043,0.036176375430947455,0.23666179940370333,0.05008706681207946,0.028132083098654892,0.047580919535172746,0.09810260293797538,0.07235016686495481,11.241956688715964,0.7878428222089203,0.34441651574223664,0.2262400924108986
4,rest,48,96,1,0.5491504573076571,0.028188050163779035,0.06012466254574308,0.02456367779021725,0.29731913872215954,0.1188841450384885,0.05683835179997195,0.05258376133058065,0.08107135798079011,0.013534612719165584,0.07511873912224362,0.057963744512147516,0.01221467839825288,0.0603521695493861,0.061242910327074095,10.055275623073575,0.696559663313352,0.5052417990816975,0.40075784958469474
4,rest,50,100,1,0.26364536282931084,0.09592185916500418,0.06573881619561818,0.03657614126790195,0.03238844730664426,0.0451402515750145,0.0545724680215037,0.08914139572948594,0.06324655750127053,0.039179476295144934,0.06139496477770092,0.08068120393368432,0.05172489029329902,0.13817536910468095,0.1461181588330467,12.599034975744694,0.8922334596726688,0.4764708457913384,0.34263582684043814
4,rest,52,104,1,0.382500389412389,0.06086710134544445,0.09969395643713005,0.062263984492649124,0.05594090816306607,0.020336076593214587,0.1093707747629307,0.08412058403413752,0.10129193423617942,0.14009872379898744,0.044526897313509894,0.05425535311478859,0.03376821155732123,0.08426830309945224,0.04919719105118865,12.665586587077048,0.8973528143905422,0.6077401525975883,0.47313723043900696
4,rest,54,108,1,0.24879864623268458,0.05431225264571518,0.03334422941698925,0.07536773476015605,0.08029610031267678,0.06187642884113171,0.06560888353358256,0.07225815755820235,0.08592767726039507,0.15188772913518833,0.061369025041197234,0.06126801959392229,0.053119811278038984,0.08226015462711496,0.06110379599568924,13.215925120075067,0.939686547698082,0.4817410948633566,0.3407881127086443
4,rest,56,112,1,0.23148681981926678,0.07458142822019452,0.0363527250102045,0.025111117556235334,0.04633853826186652,0.05968324549747614,0.05291929066516763,0.05013015009503498,0.05427550322240858,0.11431513664380248,0.06341596616831864,0.15318757400731312,0.07797388153493638,0.14475800086786755,0.04695744224917363,12.34758111262302,0.8728908548171554,0.5249880115212879,0.3940543832987146
4,rest,58,116,1,0.18630922911167272,0.06145260999277525,0.09359358561143503,0.03964291636701572,0.08999875015671135,0.07370868616807481,0.07937495453312575,0.06697731314289446,0.0846889811465985,0.05526152452925814,0.0529915585462701,0.08497189980096377,0.06663418973832028,0.10996545140439053,0.04073757886216648,13.464511426456006,0.9588085712658466,0.4596246002522803,0.3158033145624033
4,rest,60,120,1,0.290321951216493,0.062435246146189116,0.04434939566859014,0.0675758106281599,0.08968438878353151,0.0538502180379176,0.07773893978507815,0.06623540826948134,0.06416370219532906,0.08925335272746174,0.036008698837888084,0.06988833530139331,0.13185947958509003,0.07145861690959573,0.07549840712429437,13.379160053684242,0.952243081052634,0.5800954458116255,0.43725898365373045
4,rest,62,124,1,0.598182499983122,0.02520191658129168,0.01210895361529101,0.0040456808943256355,0.29143155699332807,0.0378567294284717,0.017655573077233203,0.013540162102579361,0.008888746422732376,0.11863896667972557,0.054361276870054924,0.20784402294770168,0.037445380088260455,0.13655850646096518,0.034422527838039126,7.9395019146924986,0.5338078395917306,0.7132901328369942,0.6332189568982346
4,rest,64,128,1,0.40231151419986055,0.055095318255576765,0.08511718075629773,0.11101573066642063,0.10126269491552914,0.049193019798068296,0.05088442082323498,0.06665308953101488,0.09725574081790393,0.08800409857552811,0.10149230132579089,0.05897499958379785,0.021279166382523716,0.08249689515287635,0.03127534341543669,12.953061394404342,0.9194662611080263,0.44173746421519444,0.3038175250489905
4,rest,66,132,1,0.5146193407817282,0.026273454188912186,0.04428278795205148,0.05368169580396646,0.26942187984475047,0.12181766629421638,0.11505432428842169,0.06594259261145241,0.03930444289793725,0.011464501508793419,0.11459249846726739,0.04769906742321326,0.016446439611529102,0.04700591876593536,0.02701273034155303,10.066245363974296,0.6974034895364843,0.6092455557440035,0.5046350323135309
4,rest,68,136,1,0.16184909231752992,0.10801069481886594,0.08433381576121976,0.0909218671372772,0.05093231927607438,0.07761814487352309,0.05815283630042377,0.07066090482650283,0.09031317822318424,0.05254625420888905,0.0982283583513496,0.05215004948319936,0.0408821713822029,0.07712796563110166,0.04812143972618607,13.435423129017472,0.9565710099244209,0.4659254827513018,0.32243983126263864
4,rest,70,140,1,0.20605361096870015,0.06803071963296878,0.08347873391395892,0.14648364449017817,0.14469687258586414,0.050402590238386856,0.08876384612153779,0.07057286872803566,0.06192382403613429,0.01872706455242477,0.08922439439903157,0.04809211114596193,0.04654650545033037,0.0284004893172885,0.054656335387898304,12.36641974102441,0.8743399800788008,0.3930565265368352,0.2619055295250151
4,rest,72,144,1,0.10955480307609393,0.11495120291523027,0.046162858930162746,0.1130296681948839,0.055197010120286244,0.12172958356528447,0.0707168883667219,0.10085111143388976,0.04032630439962941,0.037992383691880294,0.07190169271148107,0.032562143822778875,0.04579506745960016,0.08491539428188481,0.06386869010628611,12.843676718101447,0.9110520552385728,0.38394007353439924,0.24728226524861333
4,high,0,0,1,0.8924482346798778,0.060797075545809154,0.02165962331813657,0.12228597305398647,0.1449188479552811,0.061389381021309225,0.02803714976151249,0.02467722749872633,0.01669125691379892,0.0033487923457825386,0.05842564400964659,0.10724459578906344,0.07701400235819339,0.036191672782279555,0.2373187576464742,10.021123367294972,0.6939325667149979,0.7357434036145838,0.6316535186073341
4,high,2,4,1,0.4876387836867538,0.017006305499332314,0.0785106943482933,0.04731679918771961,0.02273307230948362,0.037769788671630125,0.029581126534635453,0.07197085166509938,0.08513938937999704,0.010036158510131928,0.12167974382018862,0.4283079831322161,0.010488505019383153,0.016655196970375825,0.022804384951513386,7.347266155802801,0.4882512427540616,0.4831158721870063,0.40987818577389706
4,high,4,8,1,0.5802244039599953,0.027609153512181003,0.10526843470620657,0.12175056703711772,0.02409593330945144,0.02520532206063899,0.07767252255218103,0.06953920701917783,0.046984231378202325,0.01880589693812963,0.06404696356538728,0.10379801854895143,0.05416619595593691,0.07409645150935021,0.18696110190708762,11.61952139095843,0.8168862608429562,0.4296364968324131,0.3071035577059697
4,high,6,12,1,0.4181316934173605,0.13286243423453853,0.17051674555439594,0.06815222682649034,0.03137812626761775,0.030822783475780345,0.02694327096671863,0.0552462916082459,0.10635067199324781,0.027300939068487438,0.10634179335876694,0.10370280374928656,0.03807124525789532,0.05890613343580394,0.04340453420272458,11.745599450058405,0.8265845730814158,0.45201026498598823,0.32802257902377585
4,high,8,16,1,0.37559632952059063,0.15394657861346694,0.12320750190202961,0.11042295190009668,0.045085800944331574,0.048774131892114554,0.07525103915856358,0.08609836864856046,0.0884435271238722,0.01543985632680987,0.07603710708979662,0.05579206392387926,0.03266170488527893,0.062048502412051836,0.026790865179147905,12.173527180367211,0.8595020907974777,0.5637020236876062,0.4347767100679846
4,high,10,20,1,0.2790806225279341,0.05965844311598908,0.1765260092562631,0.06382000224477422,0.07262760804103563,0.09744849156749233,0.05935269041515342,0.05037595489422265,0.05795331357226329,0.013779165640412244,0.10216078427685661,0.0895873868412575,0.03363571322627355,0.07301249552237965,0.05006194138562686,12.352250518224519,0.8732500398634245,0.5345850821246043,0.4035975761450906
4,high,12,24,1,0.4749729179808624,0.0914434168558642,0.06198815901795416,0.02948627753180651,0.32578353442807656,0.126106076254536,0.025324331470776545,0.03334875188369326,0.05504751140445056,0.007546041714560524,0.05495813287534784,0.06946923926715605,0.0168195644467275,0.03646345980590846,0.06621550304314193,9.378630211284044,0.6445100162526187,0.6431852604418258,0.546508758003933
4,high,14,28,1,0.518315340689402,0.05558644243812338,0.15538588971917452,0.12010862904417752,0.045729093987151824,0.03768326069815297,0.06462772839372187,0.07777383329662199,0.07114348715041528,0.023288330101518626,0.08740385636354452,0.08407584157316887,0.028517236936053365,0.07573535377212957,0.0729410165260455,12.546038290148253,0.8881567915498656,0.4554672837900644,0.32224376505758456
4,high,16,32,1,0.605664244775727,0.12489257603270446,0.12115933511564908,0.1017796646691757,0.02447499389300716,0.01992205491055363,0.05879429808446811,0.1186177295668569,0.07515381162902506,0.0066063617389626175,0.06395587092277497,0.05518409547968569,0.05286741186734974,0.07801098825052992,0.098580807839257,11.972664249832542,0.8440510961409647,0.45542553559702453,0.3288178711758798
4,high,18,36,1,0.27350260623078565,0.04868453771469153,0.15230656044565447,0.0947618289559213,0.06332872817575257,0.050972923606689105,0.11306937987617079,0.08853820480445031,0.09549626632633137,0.016876021784873296,0.06221652750344089,0.05654332399865894,0.024288819061218363,0.06580660423863507,0.06711027350751211,12.474471990003654,0.8826516915387426,0.375958222627447,0.2435604688966356
4,high,20,40,1,0.22263188502018985,0.06187497883587022,0.17435784634184728,0.1007269025252773,0.0340416015411113,0.052926016340318696,0.112396790726031,0.08160899847068612,0.08358235504946221,0.02094191917651942,0.10311671483989196,0.0645413118360626,0.015611497687018916,0.06804998201592934,0.0262230846139735,11.840771028109165,0.833905463700705,0.46323807865709316,0.33815225910198743
4,high,22,44,1,0.4453304320588774,0.08315583122351151,0.11009404693672563,0.09898718934453424,0.02440684268122791,0.03574247787801167,0.06059683942745729,0.04774436631334397,0.092879109973686,0.024351345910717255,0.12077327934499836,0.0542412487822199,0.05038078218510699,0.09877896827642696,0.09786767172203212,12.612615998251572,0.8932781537116594,0.5384539366600537,0.4044622136033048
4,high,24,48,1,0.39334843103199085,0.14951909133808453,0.10843452009860516,0.07288539357315495,0.0536790647563156,0.041998415429827504,0.06540565910969441,0.08787720988816375,0.10505669752584641,0.01385578585415205,0.07142441753233812,0.05575434805427707,0.033203989700078984,0.07147218793915487,0.06943321920030694,12.55881169915673,0.8891393614735945,0.5072374497657262,0.373866545544687
4,high,26,52,1,0.44845489866795335,0.015673674296441526,0.04568630650036075,0.049594555982130535,0.21949268691151536,0.2381866725720501,0.033598126227808424,0.04557501471855478,0.07403198998291957,0.013153257879681031,0.06059316402221562,0.055377299951738415,0.049980671597287495,0.040154361509305486,0.05890221784799098,10.073322673612875,0.6979478979702212,0.40864611081051433,0.3039539261149812
4,high,28,56,1,0.4953690267698584,0.06088050637649161,0.10222157542084788,0.10495858137403842,0.19729293562646014,0.059063825983341686,0.06410266158094416,0.05409851566539167,0.08106785501526356,0.016644158699701175,0.05229650527965151,0.04905049575830842,0.04863864620917311,0.0487393418172753,0.06094439519311149,12.185100910943069,0.8603923777648514,0.4383261682881136,0.3092673116233859
4,high,30,60,1,0.6111995110980974,0.061057973155357444,0.04988628716392662,0.07898225178283426,0.08756671597039507,0.02953187478438835,0.03759886196450295,0.05363571149823297,0.08645075756134961,0.026686189889934844,0.15959716081390035,0.12973867493338473,0.028385645684959937,0.0771737650695267,0.09370812972730626,12.245500905318517,0.8650385311783475,0.564375961674894,0.4346201819981419
4,high,32,64,1,0.4171917094762603,0.051002466145374514,0.1271395501730445,0.0978073833188647,0.09669927270958434,0.05538303550698088,0.06675606811773276,0.1012979151115589,0.13036331257495373,0.013331121707754762,0.07043498714563119,0.07136863212818141,0.01756683445498745,0.06858031471147019,0.03226910619388059,12.23352281854103,0.8641171398877715,0.41453196026331074,0.284914389280145
4,high,34,68,1,0.35838276611818193,0.08626054009316435,0.07652823118542028,0.05668248510289584,0.03438469741987927,0.028138166173927944,0.0541729481634515,0.1878869845094757,0.11739904973494976,0.01468376658194493,0.09045170203533935,0.06380880109294286,0.037371862836516306,0.04851789322905592,0.10371287184103603,11.82553751069774,0.832733654669057,0.33247505326507076,0.2075650050647122
4,high,36,72,1,0.5726110375431394,0.09377074566820903,0.10716963720086783,0.07266607083975178,0.034298874030956446,0.024116261823355137,0.038342995445731685,0.08347109857489515,0.12509517130450226,0.013025345812383099,0.11311892990226206,0.08653443922996576,0.027883067034864276,0.0862803754693676,0.09422698766288787,12.161712884784336,0.8585932988295644,0.5024776000028436,0.37368860517840896
4,high,38,76,1,0.3169277775439296,0.021797851705672784,0.06266760634981201,0.050286263139557204,0.06062850857784566,0.028684928468039668,0.05577884869958534,0.07914250994801662,0.11853033965422964,0.02647100537125691,0.05719137097637194,0.192891086794435,0.021421311262427984,0.07832899206893733,0.14617937698381198,11.402005338827056,0.8001542568328505,0.4393776158055655,0.3193544772806379
4,high,40,80,1,0.3610788640855748,0.11927958581086048,0.14341949467918896,0.045814684085960795,0.03495153872607788,0.039754310184869586,0.06367474447343349,0.11547608780345564,0.11719778172632223,0.020065096287571294,0.06381680251745028,0.10955322051729713,0.017876060019543075,0.06550985321586991,0.04361073995209927,11.91875184106862,0.8399039877745091,0.5244695124849941,0.3984839143188177
4,high,42,84,1,0.60383951448916,0.03652597205169896,0.10438547491775343,0.18495499188592313,0.07269563837676281,0.03439986698506538,0.04697051277150203,0.08345230059296144,0.05576752671683523,0.01925237356192667,0.04096879117527011,0.047186532671185784,0.0855298243495663,0.03844858449263877,0.14946160945090983,11.681141476515773,0.8216262674242902,0.4518812782650935,0.32863733815144996
4,high,44,88,1,0.6509163587861954,0.08550555326751189,0.0763908004865467,0.056170412903417476,0.026234853201959823,0.018350852704086578,0.09146860478312566,0.13452167053497344,0.1534689200640334,0.02855690760597016,0.12283466974201346,0.06637796636328838,0.05093083379559651,0.04350291476523648,0.04568503978224004,11.962562125778636,0.8432740096752797,0.7082370804416181,0.5817459789903262
4,high,46,92,1,0.6926173445062369,0.043069352340836885,0.05402346702048857,0.0843765650281593,0.02184713306470078,0.016849049520009502,0.06609570390408336,0.09662369748670617,0.12223043373049419,0.016218339949527205,0.19418518468459114,0.11702842678812105,0.05250891828151275,0.033160468147517885,0.08178326005325126,11.301740689956661,0.7924415915351278,0.6675416162009974,0.5486753774707283
4,high,48,96,1,0.36714951595584305,0.0537291939538976,0.04710425701538919,0.09796357464032097,0.09478238799803261,0.037672526274666565,0.06487229352655134,0.10672019384813261,0.06034719703719823,0.03370633240947239,0.11284570931531378,0.13873319688874422,0.03290002151063363,0.05680742506356543,0.0618156905180814,12.716983531173911,0.9013064254749162,0.36399654650562013,0.2288005826843827
4,high,50,100,1,0.5087065892921393,0.04584158305898216,0.07303394431490846,0.05737319336666345,0.04698791973750257,0.039725975545909405,0.06831671210086214,0.08709878972128522,0.08875357624735444,0.032466847982697174,0.11011447434009912,0.19452055176094396,0.03290376619843368,0.070943768113414,0.05191889751094431,12.2487862932618,0.8652912533278307,0.48060219392228176,0.3508085059231072
4,high,52,104,1,0.7998057695529475,0.19604633751862227,0.07569204733928689,0.12124455140943416,0.06686948240113275,0.04048921403345943,0.04373758478699149,0.043764482103793245,0.05097363896074363,0.013264531740052479,0.0905133729632568,0.07922715998841182,0.09524242345856365,0.03492840185813596,0.04800677143811563,11.815492623578825,0.831960971044525,0.6396228280823479,0.5148286824256691
4,high,54,108,1,0.6085021492590637,0.12113807916421028,0.05923353641306678,0.068524516748922,0.052860133993641846,0.01254236116884627,0.04536955856703255,0.05891309249320446,0.05781592921651721,0.008619935724970294,0.10540079877610778,0.18979835070496795,0.07176420362553317,0.08061712475859024,0.06740237864438922,11.663359816391367,0.8202584474147205,0.6738376266623978,0.5507988595501897
4,high,56,112,1,0.3939069510204181,0.03883076032037659,0.06535482050777895,0.06896822033905602,0.1034328789873407,0.09730736944788294,0.05957214791047891,0.08671092718365654,0.09073767163820984,0.041449859099460286,0.08329496749843947,0.08825176325585671,0.023695933230437057,0.07965527645255606,0.07273740412846978,13.22480073504754,0.9403692873113492,0.5526603741401823,0.41160498104348
4,high,58,116,1,0.4623940509395098,0.04181022758995735,0.1259770800141312,0.02574112341813787,0.038762840197409096,0.1450619202476495,0.045171284316671764,0.08619891102026309,0.1723018671580098,0.03405147496609109,0.09574716410751183,0.05079167779894819,0.012584038946985052,0.07556874302119056,0.05023164719704358,11.469655193213946,0.8053580917856882,0.43489529917276204,0.31409158540490884
4,high,60,120,1,0.26147817524208095,0.0624407590251291,0.17911837126985725,0.10971924656597232,0.036198896218085946,0.02413155906029624,0.0565907752030613,0.08440766600854203,0.08899910930582378,0.032252127083205594,0.08909486621015551,0.058879581198398215,0.04857108814901333,0.052298340519027084,0.07729761418343206,12.332650981603026,0.8717423832002328,0.31957417992777726,0.18881282244774233
4,high,62,124,1,0.518063248100789,0.13465116694958654,0.08398566274934285,0.09674901931669058,0.08595059020414851,0.0306663568695087,0.05971852777836345,0.11864565065575844,0.05329465283856652,0.016881169176050405,0.04072054266333969,0.08686680359261939,0.05452616632088533,0.04833776848514379,0.08900592239999577,12.567359552736274,0.8897968886720211,0.35503955715469004,0.22157002385388688
4,high,64,128,1,0.6177902348789546,0.08482030748628186,0.0727607067794429,0.1274975728751434,0.06582088045976586,0.043546040189998414,0.06430029256896934,0.060936810873576115,0.14547750444052665,0.024995321647644744,0.08870509864265674,0.07172356169960278,0.04629573390297896,0.05680560645681736,0.04631456197659487,12.794868075259869,0.9072975442507591,0.5035213055623367,0.3674266739247228
4,high,66,132,1,0.6345782504280725,0.03333138512778107,0.08153258608161511,0.07495661923909436,0.019810926325372732,0.02725634108258625,0.04242875100697894,0.09309583615788267,0.1409412552290566,0.036975239921426935,0.112882787197789,0.18081758220918082,0.03580918388719427,0.043130476735829225,0.07703102979821196,11.57426605211523,0.8134050809319407,0.36819330862498806,0.24618254648519694
4,high,68,136,1,0.35548936399148146,0.026355787846270084,0.08434001521542445,0.020940908831546392,0.047209352780680724,0.0576615852919065,0.06552246328188284,0.1179551530871601,0.10518144076808715,0.11414717234984705,0.06654010040541992,0.16128198469988997,0.023502675044972995,0.0642558595051801,0.04510550089173178,12.039619223575537,0.8492014787365798,0.35721931284635944,0.22983909103587247
4,high,70,140,1,0.8495859317587346,0.04445800889864039,0.08743234082410328,0.1461753685065101,0.0888451991380002,0.026539449982129853,0.05550559918860531,0.041898926017100685,0.062253567217986014,0.010150419482992005,0.11201410778119285,0.17036858012301376,0.06152524076845063,0.040862781948629065,0.051970410122646034,11.69808571103538,0.8229296700796447,0.5681568110366982,0.4447173605247515
4,high,72,144,1,0.7191989493574491,0.0764750772058456,0.039734571800982395,0.03704630481008748,0.38892910620812293,0.09584925135374465,0.04879001602139318,0.04241403746633734,0.046840805135663945,0.03401689548563189,0.06542730851244533,0.0451496399105131,0.022290889691444316,0.03135725549778914,0.025678840899998782,8.88493000433817,0.6065330772567823,0.6910084830547615,0.6000285214662442
5,rest,0,0,5,0.4096575278564522,0.11983990816221719,0.076361452745005,0.08759442697416688,0.08342571609733981,0.051220273422181876,0.08286248704982273,0.016635506409773945,0.03565104587089118,0.029372220729105704,0.03860602068893048,0.06280822852674436,0.0782777870096777,0.06045007916163037,0.17689484715251275,12.125403948797903,0.8558003037536849,0.36041920747573297,0.23204916191268024
5,rest,2,4,5,0.09574662484806082,0.023875881555104946,0.03057420019949248,0.03579048586318776,0.04370132801316743,0.07375783538644441,0.08987257370875226,0.09546188421204217,0.11825359304232577,0.08381237736038911,0.08546199480359078,0.09928775367263742,0.07944180175489395,0.06920272570949108,0.0715055647184805,12.926696689127924,0.9174382068559942,0.4165267540178065,0.27891102298940734
5,rest,4,8,5,0.16057078462419272,0.052267816780891534,0.08474247074115879,0.0767472046656942,0.05719651950547593,0.08347660775741478,0.09005365476815518,0.07318443025925339,0.05774573292004614,0.05134220906337225,0.07636460511016148,0.05590823262196416,0.0671326601280533,0.08373783460097814,0.09010002107738083,13.738375509555599,0.9798750391965846,0.3622624837605717,0.215281227881084
5,rest,6,12,5,0.13805959114404404,0.07805828254940513,0.06550957819018054,0.09017208265754065,0.06706546824391604,0.05925961221832532,0.08137699176478519,0.15310664747780764,0.02713463571755318,0.05351196223145221,0.06243301128111181,0.05023565640908083,0.07854066117219789,0.08069142268072689,0.05290398740591682,13.080526144363484,0.9292712418741141,0.3286153225134605,0.18922463623234337
5,rest,8,16,5,0.30240539682547607,0.03538552780923247,0.08655263468504971,0.045897495238452456,0.07942666165361274,0.0836266336500621,0.08052567871915807,0.03816678238482617,0.0719126921294801,0.07093538866491335,0.09301045476109171,0.09123271283913384,0.06107142654195985,0.09094890128694737,0.07130700963608017,13.47828670088946,0.9598682077607277,0.38714588978988795,0.2431656586257788
5,rest,10,20,5,0.5785842610126358,0.06263708467794334,0.07004893514229409,0.05979003543994207,0.10841431205141466,0.04609763772334558,0.09888013446089076,0.09297332641994815,0.04443233950740998,0.08029427952909231,0.08713630807525707,0.05509048425028443,0.04458225237190781,0.08981665626458936,0.05980621408568044,13.427655430259158,0.9559734946353198,0.5947937752007265,0.45139775100542856
5,rest,12,24,5,0.17997971407605998,0.05836922369000742,0.06880271526695024,0.06319831748301231,0.056899685952750245,0.05516011524816833,0.10491149193800668,0.07626840722841641,0.08243573538203872,0.0700825513786914,0.09557071855714423,0.0727773359775598,0.05622915895660867,0.07233783912623451,0.06695670381441107,13.738737596242002,0.9799028920186156,0.6329825950519501,0.48599716124915776
5,rest,14,28,5,0.4665858082090839,0.057672869015671,0.039567138021993395,0.04037513935449301,0.03990907024238476,0.06885424943223248,0.039659276571342265,0.06272291930467358,0.184768821144328,0.07722509836647291,0.1072788529798474,0.06388387541288076,0.050028057027517496,0.06444467824443817,0.10360995488172454,12.463708592626867,0.8818237378943744,0.4255821804564346,0.2933086197722784
5,rest,16,32,5,0.41923456801733666,0.08406987710942139,0.04998652942848124,0.05322585482443278,0.09897705164119194,0.03885719204103312,0.10039204616568814,0.09135885848673149,0.09404906885361623,0.05325591198539375,0.05605230856701955,0.046948760971560886,0.0657472719420142,0.0685501796283072,0.09852908835510829,13.372490796622744,0.9517300612786725,0.4831184877840292,0.3403589785922283
